%OpenBCI Raw EEG Data
%Number of channels = 8
%Sample Rate = 250 Hz
%Board = OpenBCI_V3
%Channel Order = Fp1, Fp2, C3, C4, P7, P8, O1, O2
%Source = PhysioNet EEG Motor Movement/Imagery Dataset (eegmmidb 1.0.0)
%Subject = S001
 Sample Index, EXG Channel 0, EXG Channel 1, EXG Channel 2, EXG Channel 3, EXG Channel 4, EXG Channel 5, EXG Channel 6, EXG Channel 7, Accel Channel 0, Accel Channel 1, Accel Channel 2, Other, Other, Other, Other, Other, Other, Other, Timestamp (Formatted), Timestamp (Unix)
0, -11.0000, -22.0000, 4.0000, -8.0000, -10.0000, -21.0000, -33.0000, -39.0000, 0.0000, 0.0000, 0.0000, 0.0000, 0.0000, 0.0000, 0.0000, 0.0000, 0.0000, 0.0000, 2024-01-15 10:00:00.000, 1705312800.000
1, -54.6647, -68.3404, -7.8309, -32.1454, -36.9120, -48.8325, -29.9893, -38.9688, 0.0000, 0.0000, 0.0000, 0.0000, 0.0000, 0.0000, 0.0000, 0.0000, 0.0000, 0.0000, 2024-01-15 10:00:00.004, 1705312800.004
2, -97.2339, -103.7845, -44.5203, -58.9150, -50.7881, -42.0002, -15.6682, -26.2989, 0.0000, 0.0000, 0.0000, 0.0000, 0.0000, 0.0000, 0.0000, 0.0000, 0.0000, 0.0000, 2024-01-15 10:00:00.008, 1705312800.008
3, -102.6238, -108.7019, -70.2951, -62.0924, -42.3887, -18.3104, -18.3685, -27.9946, 0.0000, 0.0000, 0.0000, 0.0000, 0.0000, 0.0000, 0.0000, 0.0000, 0.0000, 0.0000, 2024-01-15 10:00:00.012, 1705312800.012
4, -86.5602, -102.4466, -63.2188, -54.8492, -37.8134, -24.0110, -33.9404, -34.2743, 0.0000, 0.0000, 0.0000, 0.0000, 0.0000, 0.0000, 0.0000, 0.0000, 0.0000, 0.0000, 2024-01-15 10:00:00.016, 1705312800.016
5, -79.0917, -99.1567, -50.2486, -64.9748, -49.6639, -43.9894, -47.9608, -33.3676, 0.0000, 0.0000, 0.0000, 0.0000, 0.0000, 0.0000, 0.0000, 0.0000, 0.0000, 0.0000, 2024-01-15 10:00:00.020, 1705312800.020
6, -79.1933, -95.7538, -49.6293, -76.5521, -59.7453, -45.4617, -58.2494, -33.5818, 0.0000, 0.0000, 0.0000, 0.0000, 0.0000, 0.0000, 0.0000, 0.0000, 0.0000, 0.0000, 2024-01-15 10:00:00.024, 1705312800.024
7, -77.7996, -94.8863, -48.6130, -66.4377, -56.9719, -42.9985, -62.5753, -33.8274, 0.0000, 0.0000, 0.0000, 0.0000, 0.0000, 0.0000, 0.0000, 0.0000, 0.0000, 0.0000, 2024-01-15 10:00:00.028, 1705312800.028
8, -80.1505, -101.8912, -43.1979, -53.8865, -57.1366, -53.3838, -63.2743, -30.4131, 0.0000, 0.0000, 0.0000, 0.0000, 0.0000, 0.0000, 0.0000, 0.0000, 0.0000, 0.0000, 2024-01-15 10:00:00.032, 1705312800.032
9, -91.9469, -113.2438, -45.4516, -58.6558, -68.0211, -57.1646, -65.8389, -28.9551, 0.0000, 0.0000, 0.0000, 0.0000, 0.0000, 0.0000, 0.0000, 0.0000, 0.0000, 0.0000, 2024-01-15 10:00:00.036, 1705312800.036
10, -100.5152, -114.2710, -54.3999, -63.0957, -57.4273, -28.8549, -56.3851, -16.2754, 0.0000, 0.0000, 0.0000, 0.0000, 0.0000, 0.0000, 0.0000, 0.0000, 0.0000, 0.0000, 2024-01-15 10:00:00.040, 1705312800.040
11, -78.5112, -86.3851, -44.3000, -44.0625, -1.7992, 26.4755, -20.1625, 26.3484, 0.0000, 0.0000, 0.0000, 0.0000, 0.0000, 0.0000, 0.0000, 0.0000, 0.0000, 0.0000, 2024-01-15 10:00:00.044, 1705312800.044
12, -32.2778, -42.1236, -1.3482, -7.9833, 50.2645, 59.5624, 22.7253, 76.6728, 0.0000, 0.0000, 0.0000, 0.0000, 0.0000, 0.0000, 0.0000, 0.0000, 0.0000, 0.0000, 2024-01-15 10:00:00.048, 1705312800.048
13, -18.3638, -28.0504, 33.2603, 11.1134, 42.7288, 29.8630, 41.5357, 94.4778, 0.0000, 0.0000, 0.0000, 0.0000, 0.0000, 0.0000, 0.0000, 0.0000, 0.0000, 0.0000, 2024-01-15 10:00:00.052, 1705312800.052
14, -52.5760, -52.2581, 17.2056, -7.9849, 12.7929, -19.1937, 36.6089, 76.6718, 0.0000, 0.0000, 0.0000, 0.0000, 0.0000, 0.0000, 0.0000, 0.0000, 0.0000, 0.0000, 2024-01-15 10:00:00.056, 1705312800.056
15, -73.9847, -68.3289, -12.0454, -35.6535, 22.9348, -20.5046, 28.5986, 51.7809, 0.0000, 0.0000, 0.0000, 0.0000, 0.0000, 0.0000, 0.0000, 0.0000, 0.0000, 0.0000, 2024-01-15 10:00:00.060, 1705312800.060
16, -60.5876, -61.6513, -3.5832, -33.2325, 47.7525, 5.9289, 26.8653, 40.9368, 0.0000, 0.0000, 0.0000, 0.0000, 0.0000, 0.0000, 0.0000, 0.0000, 0.0000, 0.0000, 2024-01-15 10:00:00.064, 1705312800.064
17, -57.9566, -60.9455, 15.2362, -14.3865, 39.3279, 9.5567, 25.0122, 43.0954, 0.0000, 0.0000, 0.0000, 0.0000, 0.0000, 0.0000, 0.0000, 0.0000, 0.0000, 0.0000, 2024-01-15 10:00:00.068, 1705312800.068
18, -66.8989, -63.3482, 9.8340, -8.7266, 18.8276, 3.5304, 17.2203, 47.1523, 0.0000, 0.0000, 0.0000, 0.0000, 0.0000, 0.0000, 0.0000, 0.0000, 0.0000, 0.0000, 2024-01-15 10:00:00.072, 1705312800.072
19, -55.7684, -51.3215, 2.4066, -9.9435, 11.7644, 6.6521, 7.9615, 47.7811, 0.0000, 0.0000, 0.0000, 0.0000, 0.0000, 0.0000, 0.0000, 0.0000, 0.0000, 0.0000, 2024-01-15 10:00:00.076, 1705312800.076
20, -49.1028, -47.1272, 2.8727, -7.2943, 0.7954, -2.1327, 2.3043, 42.6718, 0.0000, 0.0000, 0.0000, 0.0000, 0.0000, 0.0000, 0.0000, 0.0000, 0.0000, 0.0000, 2024-01-15 10:00:00.080, 1705312800.080
21, -65.9866, -63.7104, -8.8547, -9.4295, -9.6734, -18.1792, -1.5967, 27.2316, 0.0000, 0.0000, 0.0000, 0.0000, 0.0000, 0.0000, 0.0000, 0.0000, 0.0000, 0.0000, 2024-01-15 10:00:00.084, 1705312800.084
22, -69.9630, -71.7249, -25.4762, -18.1516, 5.1165, -10.5430, -1.4513, 9.3503, 0.0000, 0.0000, 0.0000, 0.0000, 0.0000, 0.0000, 0.0000, 0.0000, 0.0000, 0.0000, 2024-01-15 10:00:00.088, 1705312800.088
23, -57.8180, -62.0027, -26.8412, -24.3899, 30.0898, 13.2666, 10.7902, 8.8700, 0.0000, 0.0000, 0.0000, 0.0000, 0.0000, 0.0000, 0.0000, 0.0000, 0.0000, 0.0000, 2024-01-15 10:00:00.092, 1705312800.092
24, -61.4893, -55.5939, -11.6039, -18.9703, 42.4253, 26.1833, 33.2639, 29.2965, 0.0000, 0.0000, 0.0000, 0.0000, 0.0000, 0.0000, 0.0000, 0.0000, 0.0000, 0.0000, 2024-01-15 10:00:00.096, 1705312800.096
25, -67.0000, -54.0000, 16.0000, 3.0000, 51.0000, 26.0000, 54.0000, 54.0000, 0.0000, 0.0000, 0.0000, 0.0000, 0.0000, 0.0000, 0.0000, 0.0000, 0.0000, 0.0000, 2024-01-15 10:00:00.100, 1705312800.100
26, -56.5896, -51.9497, 38.3837, 25.4708, 56.0275, 19.3628, 64.1483, 68.5123, 0.0000, 0.0000, 0.0000, 0.0000, 0.0000, 0.0000, 0.0000, 0.0000, 0.0000, 0.0000, 2024-01-15 10:00:00.104, 1705312800.104
27, -54.5723, -57.6342, 33.2723, 26.9176, 45.9681, 10.0137, 61.0387, 67.8541, 0.0000, 0.0000, 0.0000, 0.0000, 0.0000, 0.0000, 0.0000, 0.0000, 0.0000, 0.0000, 2024-01-15 10:00:00.108, 1705312800.108
28, -65.6452, -66.2815, 13.2147, 17.7868, 32.9885, 4.3865, 47.1718, 55.7774, 0.0000, 0.0000, 0.0000, 0.0000, 0.0000, 0.0000, 0.0000, 0.0000, 0.0000, 0.0000, 2024-01-15 10:00:00.112, 1705312800.112
29, -77.4877, -72.0783, -1.8726, 13.0665, 28.0883, 1.7589, 29.1945, 42.9475, 0.0000, 0.0000, 0.0000, 0.0000, 0.0000, 0.0000, 0.0000, 0.0000, 0.0000, 0.0000, 2024-01-15 10:00:00.116, 1705312800.116
30, -106.8760, -88.9867, -18.7576, 0.6250, 25.4738, 1.8142, 13.9188, 35.0109, 0.0000, 0.0000, 0.0000, 0.0000, 0.0000, 0.0000, 0.0000, 0.0000, 0.0000, 0.0000, 2024-01-15 10:00:00.120, 1705312800.120
31, -144.6422, -111.7922, -30.5458, -16.9592, 30.3694, 11.1612, 7.7658, 31.2667, 0.0000, 0.0000, 0.0000, 0.0000, 0.0000, 0.0000, 0.0000, 0.0000, 0.0000, 0.0000, 2024-01-15 10:00:00.124, 1705312800.124
32, -140.4753, -115.4214, -21.0262, -16.8884, 37.7688, 16.6253, 11.0183, 31.1472, 0.0000, 0.0000, 0.0000, 0.0000, 0.0000, 0.0000, 0.0000, 0.0000, 0.0000, 0.0000, 2024-01-15 10:00:00.128, 1705312800.128
33, -96.2063, -106.5766, -14.9330, -11.1285, 20.4453, -2.0257, 11.1264, 27.5412, 0.0000, 0.0000, 0.0000, 0.0000, 0.0000, 0.0000, 0.0000, 0.0000, 0.0000, 0.0000, 2024-01-15 10:00:00.132, 1705312800.132
34, -66.1028, -102.4912, -36.8763, -26.1383, -13.2983, -24.8735, -0.3964, 13.3580, 0.0000, 0.0000, 0.0000, 0.0000, 0.0000, 0.0000, 0.0000, 0.0000, 0.0000, 0.0000, 2024-01-15 10:00:00.136, 1705312800.136
35, -68.4418, -91.2414, -61.8577, -46.1551, -28.0136, -21.6852, -13.8344, -1.1019, 0.0000, 0.0000, 0.0000, 0.0000, 0.0000, 0.0000, 0.0000, 0.0000, 0.0000, 0.0000, 2024-01-15 10:00:00.140, 1705312800.140
36, -82.8707, -72.0189, -64.5493, -45.3619, -24.5697, -6.2423, -19.0454, -2.6933, 0.0000, 0.0000, 0.0000, 0.0000, 0.0000, 0.0000, 0.0000, 0.0000, 0.0000, 0.0000, 2024-01-15 10:00:00.144, 1705312800.144
37, -91.0700, -65.4874, -50.1864, -31.9603, -11.4640, 0.7884, -14.1294, 7.9305, 0.0000, 0.0000, 0.0000, 0.0000, 0.0000, 0.0000, 0.0000, 0.0000, 0.0000, 0.0000, 2024-01-15 10:00:00.148, 1705312800.148
38, -82.9345, -65.1967, -26.2086, -21.4080, 18.1174, 8.9025, 2.9362, 28.3330, 0.0000, 0.0000, 0.0000, 0.0000, 0.0000, 0.0000, 0.0000, 0.0000, 0.0000, 0.0000, 2024-01-15 10:00:00.152, 1705312800.152
39, -72.0184, -60.0410, -6.4730, -16.9752, 32.6738, 16.0883, 22.2468, 51.8347, 0.0000, 0.0000, 0.0000, 0.0000, 0.0000, 0.0000, 0.0000, 0.0000, 0.0000, 0.0000, 2024-01-15 10:00:00.156, 1705312800.156
40, -86.3504, -71.5215, -14.9910, -23.3301, 1.8391, 5.4015, 23.0269, 61.4705, 0.0000, 0.0000, 0.0000, 0.0000, 0.0000, 0.0000, 0.0000, 0.0000, 0.0000, 0.0000, 2024-01-15 10:00:00.160, 1705312800.160
41, -114.2069, -98.1431, -46.0923, -36.5971, -32.6481, -6.0447, 5.3210, 56.6656, 0.0000, 0.0000, 0.0000, 0.0000, 0.0000, 0.0000, 0.0000, 0.0000, 0.0000, 0.0000, 2024-01-15 10:00:00.164, 1705312800.164
42, -114.9200, -96.9414, -62.6398, -35.8546, -40.0751, 6.8898, -14.5375, 55.3530, 0.0000, 0.0000, 0.0000, 0.0000, 0.0000, 0.0000, 0.0000, 0.0000, 0.0000, 0.0000, 2024-01-15 10:00:00.168, 1705312800.168
43, -87.4520, -62.9142, -47.8483, -14.1808, -52.3319, 23.9402, -32.8597, 58.3360, 0.0000, 0.0000, 0.0000, 0.0000, 0.0000, 0.0000, 0.0000, 0.0000, 0.0000, 0.0000, 2024-01-15 10:00:00.172, 1705312800.172
44, -67.1570, -40.5198, -23.9649, 4.9679, -69.8455, 15.1774, -47.9691, 52.3570, 0.0000, 0.0000, 0.0000, 0.0000, 0.0000, 0.0000, 0.0000, 0.0000, 0.0000, 0.0000, 2024-01-15 10:00:00.176, 1705312800.176
45, -72.0137, -50.9691, -17.9123, 0.7761, -68.0196, -12.4060, -52.8099, 36.2811, 0.0000, 0.0000, 0.0000, 0.0000, 0.0000, 0.0000, 0.0000, 0.0000, 0.0000, 0.0000, 2024-01-15 10:00:00.180, 1705312800.180
46, -96.2870, -80.6285, -34.7895, -22.0808, -72.8483, -34.8159, -54.5745, 14.8183, 0.0000, 0.0000, 0.0000, 0.0000, 0.0000, 0.0000, 0.0000, 0.0000, 0.0000, 0.0000, 2024-01-15 10:00:00.184, 1705312800.184
47, -127.7014, -113.7332, -66.3028, -51.7286, -90.2077, -33.0954, -60.7238, -6.1989, 0.0000, 0.0000, 0.0000, 0.0000, 0.0000, 0.0000, 0.0000, 0.0000, 0.0000, 0.0000, 2024-01-15 10:00:00.188, 1705312800.188
48, -146.3236, -130.4892, -95.6759, -74.4716, -76.7795, -5.5863, -61.3133, -15.4089, 0.0000, 0.0000, 0.0000, 0.0000, 0.0000, 0.0000, 0.0000, 0.0000, 0.0000, 0.0000, 2024-01-15 10:00:00.192, 1705312800.192
49, -139.0795, -117.3943, -98.0239, -67.1385, -50.9302, 15.4749, -56.5011, -12.6897, 0.0000, 0.0000, 0.0000, 0.0000, 0.0000, 0.0000, 0.0000, 0.0000, 0.0000, 0.0000, 2024-01-15 10:00:00.196, 1705312800.196
50, -126.0000, -98.0000, -78.0000, -33.0000, -62.0000, 3.0000, -59.0000, -9.0000, 0.0000, 0.0000, 0.0000, 0.0000, 0.0000, 0.0000, 0.0000, 0.0000, 0.0000, 0.0000, 2024-01-15 10:00:00.200, 1705312800.200
51, -137.1637, -107.0011, -78.1688, -17.9433, -81.1392, -17.1507, -62.8527, -3.3753, 0.0000, 0.0000, 0.0000, 0.0000, 0.0000, 0.0000, 0.0000, 0.0000, 0.0000, 0.0000, 2024-01-15 10:00:00.204, 1705312800.204
52, -162.1940, -134.9630, -103.4883, -37.9689, -79.0259, -13.3650, -58.2150, 9.1214, 0.0000, 0.0000, 0.0000, 0.0000, 0.0000, 0.0000, 0.0000, 0.0000, 0.0000, 0.0000, 2024-01-15 10:00:00.208, 1705312800.208
53, -167.1777, -143.2073, -111.8153, -51.3440, -88.3337, 1.5340, -54.0724, 23.3274, 0.0000, 0.0000, 0.0000, 0.0000, 0.0000, 0.0000, 0.0000, 0.0000, 0.0000, 0.0000, 2024-01-15 10:00:00.212, 1705312800.212
54, -154.6598, -126.3600, -105.0271, -42.0824, -107.3063, 9.6996, -54.3291, 36.1741, 0.0000, 0.0000, 0.0000, 0.0000, 0.0000, 0.0000, 0.0000, 0.0000, 0.0000, 0.0000, 2024-01-15 10:00:00.216, 1705312800.216
55, -149.6239, -113.9912, -112.2938, -38.4926, -103.3209, 12.0925, -51.8168, 44.5917, 0.0000, 0.0000, 0.0000, 0.0000, 0.0000, 0.0000, 0.0000, 0.0000, 0.0000, 0.0000, 2024-01-15 10:00:00.220, 1705312800.220
56, -146.6178, -114.3150, -107.9012, -40.4908, -91.0667, 6.3642, -47.9767, 41.1250, 0.0000, 0.0000, 0.0000, 0.0000, 0.0000, 0.0000, 0.0000, 0.0000, 0.0000, 0.0000, 2024-01-15 10:00:00.224, 1705312800.224
57, -132.9786, -108.2876, -72.7237, -29.1703, -80.3812, -0.3176, -41.7007, 35.0844, 0.0000, 0.0000, 0.0000, 0.0000, 0.0000, 0.0000, 0.0000, 0.0000, 0.0000, 0.0000, 2024-01-15 10:00:00.228, 1705312800.228
58, -124.6890, -96.1473, -49.1050, -16.3544, -56.1129, 7.2389, -25.2834, 43.7564, 0.0000, 0.0000, 0.0000, 0.0000, 0.0000, 0.0000, 0.0000, 0.0000, 0.0000, 0.0000, 2024-01-15 10:00:00.232, 1705312800.232
59, -128.9314, -93.7179, -49.5457, -11.6670, -47.5596, 12.3707, -8.4450, 58.4405, 0.0000, 0.0000, 0.0000, 0.0000, 0.0000, 0.0000, 0.0000, 0.0000, 0.0000, 0.0000, 2024-01-15 10:00:00.236, 1705312800.236
60, -128.3882, -96.9626, -45.0409, -7.6866, -72.8516, -5.2817, -7.6687, 60.2059, 0.0000, 0.0000, 0.0000, 0.0000, 0.0000, 0.0000, 0.0000, 0.0000, 0.0000, 0.0000, 2024-01-15 10:00:00.240, 1705312800.240
61, -122.7804, -99.2435, -46.7493, -16.1658, -76.6956, -18.9714, -17.6001, 52.5570, 0.0000, 0.0000, 0.0000, 0.0000, 0.0000, 0.0000, 0.0000, 0.0000, 0.0000, 0.0000, 2024-01-15 10:00:00.244, 1705312800.244
62, -121.7783, -105.8629, -61.7016, -38.6608, -39.8698, -0.7914, -22.1754, 51.1472, 0.0000, 0.0000, 0.0000, 0.0000, 0.0000, 0.0000, 0.0000, 0.0000, 0.0000, 0.0000, 2024-01-15 10:00:00.248, 1705312800.248
63, -115.4985, -105.8999, -50.0656, -40.3283, -21.9429, 28.8946, -15.0536, 64.7393, 0.0000, 0.0000, 0.0000, 0.0000, 0.0000, 0.0000, 0.0000, 0.0000, 0.0000, 0.0000, 2024-01-15 10:00:00.252, 1705312800.252
64, -106.1153, -90.9125, -18.2357, -16.3945, -46.7915, 39.2562, -1.7213, 86.8469, 0.0000, 0.0000, 0.0000, 0.0000, 0.0000, 0.0000, 0.0000, 0.0000, 0.0000, 0.0000, 2024-01-15 10:00:00.256, 1705312800.256
65, -115.0155, -86.8475, -21.8013, -8.1087, -78.8558, 24.0189, 3.3183, 93.7069, 0.0000, 0.0000, 0.0000, 0.0000, 0.0000, 0.0000, 0.0000, 0.0000, 0.0000, 0.0000, 2024-01-15 10:00:00.260, 1705312800.260
66, -129.5998, -99.6050, -55.9777, -26.1545, -94.9840, -5.6247, -7.5665, 72.3511, 0.0000, 0.0000, 0.0000, 0.0000, 0.0000, 0.0000, 0.0000, 0.0000, 0.0000, 0.0000, 2024-01-15 10:00:00.264, 1705312800.264
67, -118.4839, -93.9060, -72.2304, -41.7373, -95.9086, -30.2227, -24.2274, 41.0566, 0.0000, 0.0000, 0.0000, 0.0000, 0.0000, 0.0000, 0.0000, 0.0000, 0.0000, 0.0000, 2024-01-15 10:00:00.268, 1705312800.268
68, -97.7683, -74.6696, -65.5904, -44.7693, -89.7372, -37.6768, -36.8185, 19.0258, 0.0000, 0.0000, 0.0000, 0.0000, 0.0000, 0.0000, 0.0000, 0.0000, 0.0000, 0.0000, 2024-01-15 10:00:00.272, 1705312800.272
69, -101.1511, -81.4104, -60.7850, -44.9376, -79.4973, -29.9056, -42.4196, 8.4875, 0.0000, 0.0000, 0.0000, 0.0000, 0.0000, 0.0000, 0.0000, 0.0000, 0.0000, 0.0000, 2024-01-15 10:00:00.276, 1705312800.276
70, -113.5850, -96.7459, -64.1541, -40.4303, -55.2647, -13.9549, -34.8991, 11.0308, 0.0000, 0.0000, 0.0000, 0.0000, 0.0000, 0.0000, 0.0000, 0.0000, 0.0000, 0.0000, 2024-01-15 10:00:00.280, 1705312800.280
71, -108.9558, -85.1429, -63.2048, -27.4992, -32.2242, -8.8451, -18.9340, 20.1024, 0.0000, 0.0000, 0.0000, 0.0000, 0.0000, 0.0000, 0.0000, 0.0000, 0.0000, 0.0000, 2024-01-15 10:00:00.284, 1705312800.284
72, -104.4272, -72.8750, -52.6463, -20.0308, -44.3579, -26.8005, -11.8511, 19.2231, 0.0000, 0.0000, 0.0000, 0.0000, 0.0000, 0.0000, 0.0000, 0.0000, 0.0000, 0.0000, 2024-01-15 10:00:00.288, 1705312800.288
73, -117.2903, -84.9123, -51.0796, -30.7831, -69.4985, -38.2548, -13.6077, 13.3797, 0.0000, 0.0000, 0.0000, 0.0000, 0.0000, 0.0000, 0.0000, 0.0000, 0.0000, 0.0000, 2024-01-15 10:00:00.292, 1705312800.292
74, -129.3770, -98.4776, -67.0728, -44.1701, -68.0040, -24.8988, -14.3739, 17.4992, 0.0000, 0.0000, 0.0000, 0.0000, 0.0000, 0.0000, 0.0000, 0.0000, 0.0000, 0.0000, 2024-01-15 10:00:00.296, 1705312800.296
75, -132.0000, -110.0000, -74.0000, -41.0000, -66.0000, -25.0000, -22.0000, 19.0000, 0.0000, 0.0000, 0.0000, 0.0000, 0.0000, 0.0000, 0.0000, 0.0000, 0.0000, 0.0000, 2024-01-15 10:00:00.300, 1705312800.300
76, -134.8927, -129.9167, -62.4993, -34.9195, -76.3474, -44.6711, -38.3701, 4.0805, 0.0000, 0.0000, 0.0000, 0.0000, 0.0000, 0.0000, 0.0000, 0.0000, 0.0000, 0.0000, 2024-01-15 10:00:00.304, 1705312800.304
77, -123.7184, -128.2115, -51.7798, -36.5590, -53.0814, -33.6226, -44.3641, -11.4336, 0.0000, 0.0000, 0.0000, 0.0000, 0.0000, 0.0000, 0.0000, 0.0000, 0.0000, 0.0000, 2024-01-15 10:00:00.308, 1705312800.308
78, -88.4897, -93.4306, -34.3811, -23.2309, -13.9029, -2.8371, -36.9711, -14.2880, 0.0000, 0.0000, 0.0000, 0.0000, 0.0000, 0.0000, 0.0000, 0.0000, 0.0000, 0.0000, 2024-01-15 10:00:00.312, 1705312800.312
79, -66.7850, -73.3978, -7.7760, 1.5401, -27.1352, -8.4114, -32.5297, -9.6743, 0.0000, 0.0000, 0.0000, 0.0000, 0.0000, 0.0000, 0.0000, 0.0000, 0.0000, 0.0000, 2024-01-15 10:00:00.316, 1705312800.316
80, -82.6224, -88.9073, -10.6236, -2.3927, -63.2346, -27.1660, -31.1446, 3.4009, 0.0000, 0.0000, 0.0000, 0.0000, 0.0000, 0.0000, 0.0000, 0.0000, 0.0000, 0.0000, 2024-01-15 10:00:00.320, 1705312800.320
81, -102.9330, -104.9254, -40.0508, -26.7574, -54.3730, -12.8803, -23.5719, 26.9137, 0.0000, 0.0000, 0.0000, 0.0000, 0.0000, 0.0000, 0.0000, 0.0000, 0.0000, 0.0000, 2024-01-15 10:00:00.324, 1705312800.324
82, -106.3091, -104.6929, -46.5615, -27.3884, -31.2683, 0.3418, -14.1075, 47.0421, 0.0000, 0.0000, 0.0000, 0.0000, 0.0000, 0.0000, 0.0000, 0.0000, 0.0000, 0.0000, 2024-01-15 10:00:00.328, 1705312800.328
83, -108.7954, -103.1513, -38.7124, -16.1908, -41.9860, -23.4035, -9.6221, 50.1213, 0.0000, 0.0000, 0.0000, 0.0000, 0.0000, 0.0000, 0.0000, 0.0000, 0.0000, 0.0000, 2024-01-15 10:00:00.332, 1705312800.332
84, -109.1617, -106.8619, -51.9713, -29.4125, -58.3665, -53.8774, -11.8623, 36.1321, 0.0000, 0.0000, 0.0000, 0.0000, 0.0000, 0.0000, 0.0000, 0.0000, 0.0000, 0.0000, 2024-01-15 10:00:00.336, 1705312800.336
85, -98.9122, -112.7521, -64.9267, -52.9839, -56.5201, -63.8115, -23.2534, 13.2617, 0.0000, 0.0000, 0.0000, 0.0000, 0.0000, 0.0000, 0.0000, 0.0000, 0.0000, 0.0000, 2024-01-15 10:00:00.340, 1705312800.340
86, -97.5155, -115.9958, -60.7225, -62.2068, -61.9465, -61.7592, -41.1505, -7.0136, 0.0000, 0.0000, 0.0000, 0.0000, 0.0000, 0.0000, 0.0000, 0.0000, 0.0000, 0.0000, 2024-01-15 10:00:00.344, 1705312800.344
87, -111.0233, -111.7266, -65.9588, -64.5330, -81.1811, -57.3562, -57.1310, -17.9529, 0.0000, 0.0000, 0.0000, 0.0000, 0.0000, 0.0000, 0.0000, 0.0000, 0.0000, 0.0000, 2024-01-15 10:00:00.348, 1705312800.348
88, -113.1008, -104.4591, -80.7423, -66.7622, -82.2702, -52.4757, -63.4154, -19.7519, 0.0000, 0.0000, 0.0000, 0.0000, 0.0000, 0.0000, 0.0000, 0.0000, 0.0000, 0.0000, 2024-01-15 10:00:00.352, 1705312800.352
89, -94.4604, -96.6512, -78.8297, -62.5432, -51.3675, -46.3642, -52.3018, -11.7594, 0.0000, 0.0000, 0.0000, 0.0000, 0.0000, 0.0000, 0.0000, 0.0000, 0.0000, 0.0000, 2024-01-15 10:00:00.356, 1705312800.356
90, -74.1825, -84.4262, -60.8204, -51.5865, -24.4376, -45.2305, -28.4055, -0.9404, 0.0000, 0.0000, 0.0000, 0.0000, 0.0000, 0.0000, 0.0000, 0.0000, 0.0000, 0.0000, 2024-01-15 10:00:00.360, 1705312800.360
91, -69.6872, -81.3552, -46.1225, -42.7302, -42.1935, -60.0902, -16.5038, -4.8495, 0.0000, 0.0000, 0.0000, 0.0000, 0.0000, 0.0000, 0.0000, 0.0000, 0.0000, 0.0000, 2024-01-15 10:00:00.364, 1705312800.364
92, -82.1499, -99.0448, -51.5226, -46.8392, -84.1688, -69.9363, -29.1573, -21.5476, 0.0000, 0.0000, 0.0000, 0.0000, 0.0000, 0.0000, 0.0000, 0.0000, 0.0000, 0.0000, 2024-01-15 10:00:00.368, 1705312800.368
93, -92.0425, -112.4020, -71.5810, -57.3657, -99.6905, -45.5992, -48.3794, -25.9486, 0.0000, 0.0000, 0.0000, 0.0000, 0.0000, 0.0000, 0.0000, 0.0000, 0.0000, 0.0000, 2024-01-15 10:00:00.372, 1705312800.372
94, -85.6573, -101.9231, -71.9989, -51.5517, -94.0684, -19.6794, -60.6728, -11.5221, 0.0000, 0.0000, 0.0000, 0.0000, 0.0000, 0.0000, 0.0000, 0.0000, 0.0000, 0.0000, 2024-01-15 10:00:00.376, 1705312800.376
95, -85.8859, -89.1920, -53.0144, -36.3094, -104.0531, -31.7990, -72.3290, 4.3476, 0.0000, 0.0000, 0.0000, 0.0000, 0.0000, 0.0000, 0.0000, 0.0000, 0.0000, 0.0000, 2024-01-15 10:00:00.380, 1705312800.380
96, -106.4401, -87.8732, -60.3741, -40.5645, -118.7823, -46.6531, -80.9952, 14.9783, 0.0000, 0.0000, 0.0000, 0.0000, 0.0000, 0.0000, 0.0000, 0.0000, 0.0000, 0.0000, 2024-01-15 10:00:00.384, 1705312800.384
97, -115.4638, -84.1729, -84.7921, -49.9640, -106.9093, -31.1743, -74.1877, 25.2855, 0.0000, 0.0000, 0.0000, 0.0000, 0.0000, 0.0000, 0.0000, 0.0000, 0.0000, 0.0000, 2024-01-15 10:00:00.388, 1705312800.388
98, -100.5740, -79.7788, -71.9995, -31.1277, -75.5016, -15.7162, -54.2664, 34.0426, 0.0000, 0.0000, 0.0000, 0.0000, 0.0000, 0.0000, 0.0000, 0.0000, 0.0000, 0.0000, 2024-01-15 10:00:00.392, 1705312800.392
99, -94.1013, -89.2228, -38.1964, -2.0562, -52.1913, -16.4332, -34.6036, 40.7933, 0.0000, 0.0000, 0.0000, 0.0000, 0.0000, 0.0000, 0.0000, 0.0000, 0.0000, 0.0000, 2024-01-15 10:00:00.396, 1705312800.396
100, -103.0000, -105.0000, -34.0000, 3.0000, -50.0000, -17.0000, -22.0000, 49.0000, 0.0000, 0.0000, 0.0000, 0.0000, 0.0000, 0.0000, 0.0000, 0.0000, 0.0000, 0.0000, 2024-01-15 10:00:00.400, 1705312800.400
101, -102.9346, -108.0264, -45.6349, -8.6115, -56.3226, -20.0187, -17.0223, 56.1674, 0.0000, 0.0000, 0.0000, 0.0000, 0.0000, 0.0000, 0.0000, 0.0000, 0.0000, 0.0000, 2024-01-15 10:00:00.404, 1705312800.404
102, -94.4385, -94.9518, -43.2737, -16.2918, -48.0400, -22.8446, -17.7599, 58.2795, 0.0000, 0.0000, 0.0000, 0.0000, 0.0000, 0.0000, 0.0000, 0.0000, 0.0000, 0.0000, 2024-01-15 10:00:00.408, 1705312800.408
103, -90.4549, -79.3919, -36.6211, -14.8921, -32.8738, -9.3761, -19.0941, 56.3781, 0.0000, 0.0000, 0.0000, 0.0000, 0.0000, 0.0000, 0.0000, 0.0000, 0.0000, 0.0000, 2024-01-15 10:00:00.412, 1705312800.412
104, -82.2014, -71.8866, -29.1248, -3.2371, -34.1684, 4.6921, -15.4641, 53.8498, 0.0000, 0.0000, 0.0000, 0.0000, 0.0000, 0.0000, 0.0000, 0.0000, 0.0000, 0.0000, 2024-01-15 10:00:00.416, 1705312800.416
105, -61.9960, -65.5942, -10.0983, 12.3559, -35.4114, 1.9663, -5.3664, 56.9259, 0.0000, 0.0000, 0.0000, 0.0000, 0.0000, 0.0000, 0.0000, 0.0000, 0.0000, 0.0000, 2024-01-15 10:00:00.420, 1705312800.420
106, -46.4008, -59.9751, 5.6844, 16.6472, -21.3199, -3.1059, 4.7519, 66.8634, 0.0000, 0.0000, 0.0000, 0.0000, 0.0000, 0.0000, 0.0000, 0.0000, 0.0000, 0.0000, 2024-01-15 10:00:00.424, 1705312800.424
107, -54.6963, -73.1154, -3.2592, 5.1368, -23.6455, -9.9973, 5.2369, 70.2133, 0.0000, 0.0000, 0.0000, 0.0000, 0.0000, 0.0000, 0.0000, 0.0000, 0.0000, 0.0000, 2024-01-15 10:00:00.428, 1705312800.428
108, -75.1257, -94.7663, -25.8141, -10.4860, -44.0232, -27.3723, -2.6259, 57.8113, 0.0000, 0.0000, 0.0000, 0.0000, 0.0000, 0.0000, 0.0000, 0.0000, 0.0000, 0.0000, 2024-01-15 10:00:00.432, 1705312800.432
109, -75.3914, -88.7210, -33.1192, -16.0920, -40.3430, -35.2285, -9.2759, 40.8736, 0.0000, 0.0000, 0.0000, 0.0000, 0.0000, 0.0000, 0.0000, 0.0000, 0.0000, 0.0000, 2024-01-15 10:00:00.436, 1705312800.436
110, -57.3710, -68.0317, -22.0578, -11.8469, -24.0689, -27.3576, -14.2004, 29.7989, 0.0000, 0.0000, 0.0000, 0.0000, 0.0000, 0.0000, 0.0000, 0.0000, 0.0000, 0.0000, 2024-01-15 10:00:00.440, 1705312800.440
111, -53.3630, -71.9234, -17.1766, -11.2002, -29.7521, -26.3030, -21.4854, 22.6376, 0.0000, 0.0000, 0.0000, 0.0000, 0.0000, 0.0000, 0.0000, 0.0000, 0.0000, 0.0000, 2024-01-15 10:00:00.444, 1705312800.444
112, -60.4459, -83.1665, -23.3002, -15.0532, -34.5401, -32.2834, -28.1414, 19.0010, 0.0000, 0.0000, 0.0000, 0.0000, 0.0000, 0.0000, 0.0000, 0.0000, 0.0000, 0.0000, 2024-01-15 10:00:00.448, 1705312800.448
113, -57.3392, -75.4679, -21.8583, -13.5166, -28.9357, -35.4848, -34.5495, 15.9333, 0.0000, 0.0000, 0.0000, 0.0000, 0.0000, 0.0000, 0.0000, 0.0000, 0.0000, 0.0000, 2024-01-15 10:00:00.452, 1705312800.452
114, -59.3318, -70.8468, -19.6844, -12.8313, -40.9357, -39.8654, -43.5531, 5.7786, 0.0000, 0.0000, 0.0000, 0.0000, 0.0000, 0.0000, 0.0000, 0.0000, 0.0000, 0.0000, 2024-01-15 10:00:00.456, 1705312800.456
115, -68.8293, -69.3468, -27.6345, -13.2421, -43.7862, -33.3200, -43.2596, -2.4258, 0.0000, 0.0000, 0.0000, 0.0000, 0.0000, 0.0000, 0.0000, 0.0000, 0.0000, 0.0000, 2024-01-15 10:00:00.460, 1705312800.460
116, -51.3126, -41.6919, -16.7778, 5.9914, -8.7733, -12.1033, -24.2914, 6.0253, 0.0000, 0.0000, 0.0000, 0.0000, 0.0000, 0.0000, 0.0000, 0.0000, 0.0000, 0.0000, 2024-01-15 10:00:00.464, 1705312800.464
117, -20.5236, -15.2829, 17.2778, 30.7864, 7.1949, -7.8796, -3.4146, 20.2906, 0.0000, 0.0000, 0.0000, 0.0000, 0.0000, 0.0000, 0.0000, 0.0000, 0.0000, 0.0000, 2024-01-15 10:00:00.468, 1705312800.468
118, -24.8212, -31.7581, 23.2429, 18.4203, -20.0273, -19.1285, 4.1408, 25.8579, 0.0000, 0.0000, 0.0000, 0.0000, 0.0000, 0.0000, 0.0000, 0.0000, 0.0000, 0.0000, 2024-01-15 10:00:00.472, 1705312800.472
119, -43.5398, -58.1582, -3.6927, -14.8736, -22.3207, -7.4103, 8.6642, 32.5160, 0.0000, 0.0000, 0.0000, 0.0000, 0.0000, 0.0000, 0.0000, 0.0000, 0.0000, 0.0000, 2024-01-15 10:00:00.476, 1705312800.476
120, -27.6528, -51.0746, -7.0137, -15.5414, 14.2102, 13.2758, 18.2880, 45.7133, 0.0000, 0.0000, 0.0000, 0.0000, 0.0000, 0.0000, 0.0000, 0.0000, 0.0000, 0.0000, 2024-01-15 10:00:00.480, 1705312800.480
121, 3.1237, -30.2255, 18.7866, 11.1764, 26.1034, 3.9032, 24.0615, 51.9424, 0.0000, 0.0000, 0.0000, 0.0000, 0.0000, 0.0000, 0.0000, 0.0000, 0.0000, 0.0000, 2024-01-15 10:00:00.484, 1705312800.484
122, 2.8404, -27.9423, 27.2429, 22.9894, 1.2953, -16.6914, 21.3157, 48.3617, 0.0000, 0.0000, 0.0000, 0.0000, 0.0000, 0.0000, 0.0000, 0.0000, 0.0000, 0.0000, 2024-01-15 10:00:00.488, 1705312800.488
123, -24.3591, -40.9064, 10.1853, 13.0630, -20.2479, -16.5737, 13.5924, 43.5414, 0.0000, 0.0000, 0.0000, 0.0000, 0.0000, 0.0000, 0.0000, 0.0000, 0.0000, 0.0000, 2024-01-15 10:00:00.492, 1705312800.492
124, -36.6110, -43.9350, -4.6039, 1.2986, -20.9679, -6.8226, 2.0653, 36.2461, 0.0000, 0.0000, 0.0000, 0.0000, 0.0000, 0.0000, 0.0000, 0.0000, 0.0000, 0.0000, 2024-01-15 10:00:00.496, 1705312800.496
125, -12.0000, -23.0000, -3.0000, 2.0000, -10.0000, -6.0000, -12.0000, 24.0000, 0.0000, 0.0000, 0.0000, 0.0000, 0.0000, 0.0000, 0.0000, 0.0000, 0.0000, 0.0000, 2024-01-15 10:00:00.500, 1705312800.500
126, 11.9031, -6.6600, 5.2867, 11.2639, -12.7003, -15.6970, -27.6620, 11.2362, 0.0000, 0.0000, 0.0000, 0.0000, 0.0000, 0.0000, 0.0000, 0.0000, 0.0000, 0.0000, 2024-01-15 10:00:00.504, 1705312800.504
127, -10.2088, -29.8454, -2.3718, 7.9988, -38.1872, -24.1641, -43.4433, 1.0548, 0.0000, 0.0000, 0.0000, 0.0000, 0.0000, 0.0000, 0.0000, 0.0000, 0.0000, 0.0000, 2024-01-15 10:00:00.508, 1705312800.508
128, -44.3738, -64.6656, -26.4679, -7.7122, -46.8425, -12.0086, -48.6452, -1.5334, 0.0000, 0.0000, 0.0000, 0.0000, 0.0000, 0.0000, 0.0000, 0.0000, 0.0000, 0.0000, 2024-01-15 10:00:00.512, 1705312800.512
129, -36.8780, -66.2370, -33.6946, -6.3937, -22.0617, 11.6418, -36.9525, 7.1849, 0.0000, 0.0000, 0.0000, 0.0000, 0.0000, 0.0000, 0.0000, 0.0000, 0.0000, 0.0000, 2024-01-15 10:00:00.516, 1705312800.516
130, -17.4204, -50.8781, -15.1067, 11.2491, -9.9661, 15.5216, -22.0774, 17.6439, 0.0000, 0.0000, 0.0000, 0.0000, 0.0000, 0.0000, 0.0000, 0.0000, 0.0000, 0.0000, 2024-01-15 10:00:00.520, 1705312800.520
131, -25.5385, -46.3895, -0.9754, 15.4587, -21.9811, 8.5102, -14.5329, 21.5271, 0.0000, 0.0000, 0.0000, 0.0000, 0.0000, 0.0000, 0.0000, 0.0000, 0.0000, 0.0000, 2024-01-15 10:00:00.524, 1705312800.524
132, -31.7422, -42.7803, 0.7536, 10.2066, -22.7570, 16.5011, -7.0185, 23.8040, 0.0000, 0.0000, 0.0000, 0.0000, 0.0000, 0.0000, 0.0000, 0.0000, 0.0000, 0.0000, 2024-01-15 10:00:00.528, 1705312800.528
133, -21.2619, -40.6882, 3.4254, 12.6398, -22.6615, 21.1684, 1.0450, 24.7275, 0.0000, 0.0000, 0.0000, 0.0000, 0.0000, 0.0000, 0.0000, 0.0000, 0.0000, 0.0000, 2024-01-15 10:00:00.532, 1705312800.532
134, -27.6768, -56.4623, -3.2622, 6.7779, -44.7735, 5.4582, -0.1070, 18.9834, 0.0000, 0.0000, 0.0000, 0.0000, 0.0000, 0.0000, 0.0000, 0.0000, 0.0000, 0.0000, 2024-01-15 10:00:00.536, 1705312800.536
135, -55.7191, -82.3978, -27.7122, -18.0973, -63.4149, -6.5414, -8.7625, 12.3002, 0.0000, 0.0000, 0.0000, 0.0000, 0.0000, 0.0000, 0.0000, 0.0000, 0.0000, 0.0000, 2024-01-15 10:00:00.540, 1705312800.540
136, -80.1066, -105.2469, -49.9069, -42.0761, -64.9127, -2.5005, -16.3618, 12.1928, 0.0000, 0.0000, 0.0000, 0.0000, 0.0000, 0.0000, 0.0000, 0.0000, 0.0000, 0.0000, 2024-01-15 10:00:00.544, 1705312800.544
137, -88.1808, -117.9140, -54.1409, -49.1161, -62.6708, 6.8912, -19.0053, 18.4077, 0.0000, 0.0000, 0.0000, 0.0000, 0.0000, 0.0000, 0.0000, 0.0000, 0.0000, 0.0000, 2024-01-15 10:00:00.548, 1705312800.548
138, -78.5991, -108.3694, -42.9982, -35.9614, -49.1285, 19.9127, -12.0658, 31.2828, 0.0000, 0.0000, 0.0000, 0.0000, 0.0000, 0.0000, 0.0000, 0.0000, 0.0000, 0.0000, 2024-01-15 10:00:00.552, 1705312800.552
139, -72.5072, -93.1817, -27.6699, -12.1660, -29.6948, 28.8979, 3.9355, 47.1453, 0.0000, 0.0000, 0.0000, 0.0000, 0.0000, 0.0000, 0.0000, 0.0000, 0.0000, 0.0000, 2024-01-15 10:00:00.556, 1705312800.556
140, -92.2892, -105.7524, -25.7331, -8.0328, -29.3894, 25.6452, 18.2091, 56.7753, 0.0000, 0.0000, 0.0000, 0.0000, 0.0000, 0.0000, 0.0000, 0.0000, 0.0000, 0.0000, 2024-01-15 10:00:00.560, 1705312800.560
141, -106.0734, -126.4207, -35.3452, -30.5539, -34.9290, 24.8397, 24.3228, 59.4532, 0.0000, 0.0000, 0.0000, 0.0000, 0.0000, 0.0000, 0.0000, 0.0000, 0.0000, 0.0000, 2024-01-15 10:00:00.564, 1705312800.564
142, -82.9323, -117.9431, -31.6285, -41.4709, -35.2374, 26.2514, 21.6490, 56.5159, 0.0000, 0.0000, 0.0000, 0.0000, 0.0000, 0.0000, 0.0000, 0.0000, 0.0000, 0.0000, 2024-01-15 10:00:00.568, 1705312800.568
143, -60.7608, -99.7231, -18.8977, -26.1223, -54.8914, 14.7150, 9.7676, 45.9085, 0.0000, 0.0000, 0.0000, 0.0000, 0.0000, 0.0000, 0.0000, 0.0000, 0.0000, 0.0000, 2024-01-15 10:00:00.572, 1705312800.572
144, -65.1952, -93.7686, -24.0597, -11.1170, -71.4132, 15.4384, 1.4394, 41.9356, 0.0000, 0.0000, 0.0000, 0.0000, 0.0000, 0.0000, 0.0000, 0.0000, 0.0000, 0.0000, 2024-01-15 10:00:00.576, 1705312800.576
145, -67.1354, -79.2824, -32.2536, 3.3352, -42.5086, 43.6518, 12.2280, 59.6935, 0.0000, 0.0000, 0.0000, 0.0000, 0.0000, 0.0000, 0.0000, 0.0000, 0.0000, 0.0000, 2024-01-15 10:00:00.580, 1705312800.580
146, -68.7970, -59.3324, -18.6752, 30.4787, -17.7220, 44.8088, 26.9869, 76.4052, 0.0000, 0.0000, 0.0000, 0.0000, 0.0000, 0.0000, 0.0000, 0.0000, 0.0000, 0.0000, 2024-01-15 10:00:00.584, 1705312800.584
147, -95.1522, -65.3220, -15.9452, 38.4884, -52.5274, -2.5436, 17.1649, 60.0489, 0.0000, 0.0000, 0.0000, 0.0000, 0.0000, 0.0000, 0.0000, 0.0000, 0.0000, 0.0000, 2024-01-15 10:00:00.588, 1705312800.588
148, -117.5399, -86.2566, -53.4844, 3.7666, -92.1169, -30.4476, -13.3418, 20.3146, 0.0000, 0.0000, 0.0000, 0.0000, 0.0000, 0.0000, 0.0000, 0.0000, 0.0000, 0.0000, 2024-01-15 10:00:00.592, 1705312800.592
149, -105.7418, -91.6967, -88.7686, -30.8883, -80.9903, -9.5951, -37.5200, -11.9572, 0.0000, 0.0000, 0.0000, 0.0000, 0.0000, 0.0000, 0.0000, 0.0000, 0.0000, 0.0000, 2024-01-15 10:00:00.596, 1705312800.596
150, -87.0000, -90.0000, -82.0000, -28.0000, -53.0000, 7.0000, -43.0000, -25.0000, 0.0000, 0.0000, 0.0000, 0.0000, 0.0000, 0.0000, 0.0000, 0.0000, 0.0000, 0.0000, 2024-01-15 10:00:00.600, 1705312800.600
151, -83.4471, -95.1079, -59.8903, -11.9900, -38.6860, 0.6512, -34.3576, -21.8608, 0.0000, 0.0000, 0.0000, 0.0000, 0.0000, 0.0000, 0.0000, 0.0000, 0.0000, 0.0000, 2024-01-15 10:00:00.604, 1705312800.604
152, -78.6121, -93.5328, -49.7390, -9.5424, -26.7122, 6.6108, -18.8658, -8.3092, 0.0000, 0.0000, 0.0000, 0.0000, 0.0000, 0.0000, 0.0000, 0.0000, 0.0000, 0.0000, 2024-01-15 10:00:00.608, 1705312800.608
153, -68.5738, -83.6079, -41.1581, -12.6559, -25.3091, 24.7223, -5.1106, 6.5224, 0.0000, 0.0000, 0.0000, 0.0000, 0.0000, 0.0000, 0.0000, 0.0000, 0.0000, 0.0000, 2024-01-15 10:00:00.612, 1705312800.612
154, -74.0170, -89.5015, -37.7785, -17.5474, -48.8934, 22.2725, -1.7557, 14.4854, 0.0000, 0.0000, 0.0000, 0.0000, 0.0000, 0.0000, 0.0000, 0.0000, 0.0000, 0.0000, 2024-01-15 10:00:00.616, 1705312800.616
155, -98.3436, -113.9620, -55.1795, -30.7422, -71.2524, 3.6235, -8.7196, 14.4356, 0.0000, 0.0000, 0.0000, 0.0000, 0.0000, 0.0000, 0.0000, 0.0000, 0.0000, 0.0000, 2024-01-15 10:00:00.620, 1705312800.620
156, -115.5002, -125.5653, -71.9067, -40.9431, -60.2816, 3.0089, -14.2495, 14.0089, 0.0000, 0.0000, 0.0000, 0.0000, 0.0000, 0.0000, 0.0000, 0.0000, 0.0000, 0.0000, 2024-01-15 10:00:00.624, 1705312800.624
157, -110.7999, -113.7389, -63.0150, -35.7505, -30.9110, 21.2464, -9.4438, 20.6271, 0.0000, 0.0000, 0.0000, 0.0000, 0.0000, 0.0000, 0.0000, 0.0000, 0.0000, 0.0000, 2024-01-15 10:00:00.628, 1705312800.628
158, -108.0132, -112.0282, -53.0027, -30.1856, -24.5977, 21.4562, -2.0615, 26.2383, 0.0000, 0.0000, 0.0000, 0.0000, 0.0000, 0.0000, 0.0000, 0.0000, 0.0000, 0.0000, 2024-01-15 10:00:00.632, 1705312800.632
159, -123.0590, -137.1945, -72.0914, -46.3709, -44.8380, -2.9773, -1.9717, 19.4469, 0.0000, 0.0000, 0.0000, 0.0000, 0.0000, 0.0000, 0.0000, 0.0000, 0.0000, 0.0000, 2024-01-15 10:00:00.636, 1705312800.636
160, -127.6658, -154.2132, -100.2792, -78.5900, -51.3336, -10.7251, -3.6921, 9.0578, 0.0000, 0.0000, 0.0000, 0.0000, 0.0000, 0.0000, 0.0000, 0.0000, 0.0000, 0.0000, 2024-01-15 10:00:00.640, 1705312800.640
161, -105.2444, -137.2489, -98.7463, -94.9855, -28.1661, 9.3174, -0.7426, 7.0629, 0.0000, 0.0000, 0.0000, 0.0000, 0.0000, 0.0000, 0.0000, 0.0000, 0.0000, 0.0000, 2024-01-15 10:00:00.644, 1705312800.644
162, -83.5262, -111.1123, -65.9557, -75.4534, -4.9835, 15.6669, 2.3286, 7.5312, 0.0000, 0.0000, 0.0000, 0.0000, 0.0000, 0.0000, 0.0000, 0.0000, 0.0000, 0.0000, 2024-01-15 10:00:00.648, 1705312800.648
163, -80.5074, -104.8196, -38.5670, -42.8699, -1.5369, -1.0045, 3.8202, 7.3311, 0.0000, 0.0000, 0.0000, 0.0000, 0.0000, 0.0000, 0.0000, 0.0000, 0.0000, 0.0000, 2024-01-15 10:00:00.652, 1705312800.652
164, -87.4528, -114.3663, -42.9530, -34.5668, -7.7104, -0.2324, 8.5069, 16.0259, 0.0000, 0.0000, 0.0000, 0.0000, 0.0000, 0.0000, 0.0000, 0.0000, 0.0000, 0.0000, 2024-01-15 10:00:00.656, 1705312800.656
165, -93.4513, -116.9950, -55.8134, -42.9430, -4.0626, 30.8887, 20.9551, 36.8692, 0.0000, 0.0000, 0.0000, 0.0000, 0.0000, 0.0000, 0.0000, 0.0000, 0.0000, 0.0000, 2024-01-15 10:00:00.660, 1705312800.660
166, -76.3411, -91.8808, -35.2580, -25.8006, 29.6455, 65.9327, 48.4213, 67.7016, 0.0000, 0.0000, 0.0000, 0.0000, 0.0000, 0.0000, 0.0000, 0.0000, 0.0000, 0.0000, 2024-01-15 10:00:00.664, 1705312800.664
167, -30.9577, -47.8629, 13.5252, 22.0043, 81.4956, 85.5783, 88.7571, 105.2958, 0.0000, 0.0000, 0.0000, 0.0000, 0.0000, 0.0000, 0.0000, 0.0000, 0.0000, 0.0000, 2024-01-15 10:00:00.668, 1705312800.668
168, -7.6298, -28.3655, 44.2500, 56.7883, 101.3734, 85.3107, 118.8749, 134.2226, 0.0000, 0.0000, 0.0000, 0.0000, 0.0000, 0.0000, 0.0000, 0.0000, 0.0000, 0.0000, 2024-01-15 10:00:00.672, 1705312800.672
169, -32.4786, -49.2495, 36.3168, 51.6205, 83.9905, 76.2316, 124.6270, 142.3928, 0.0000, 0.0000, 0.0000, 0.0000, 0.0000, 0.0000, 0.0000, 0.0000, 0.0000, 0.0000, 2024-01-15 10:00:00.676, 1705312800.676
170, -50.9328, -69.4894, 16.1122, 30.2719, 81.1845, 78.1418, 119.1318, 140.0670, 0.0000, 0.0000, 0.0000, 0.0000, 0.0000, 0.0000, 0.0000, 0.0000, 0.0000, 0.0000, 2024-01-15 10:00:00.680, 1705312800.680
171, -33.3111, -64.6814, 14.4983, 22.4313, 94.8281, 77.4833, 109.9747, 134.6287, 0.0000, 0.0000, 0.0000, 0.0000, 0.0000, 0.0000, 0.0000, 0.0000, 0.0000, 0.0000, 2024-01-15 10:00:00.684, 1705312800.684
172, -26.2111, -64.2966, 24.7360, 16.1350, 74.9528, 45.5003, 87.2138, 115.5925, 0.0000, 0.0000, 0.0000, 0.0000, 0.0000, 0.0000, 0.0000, 0.0000, 0.0000, 0.0000, 2024-01-15 10:00:00.688, 1705312800.688
173, -52.6605, -86.0091, 12.7506, -15.3666, 21.4722, 4.5150, 50.5750, 80.8203, 0.0000, 0.0000, 0.0000, 0.0000, 0.0000, 0.0000, 0.0000, 0.0000, 0.0000, 0.0000, 2024-01-15 10:00:00.692, 1705312800.692
174, -81.9254, -107.6506, -27.3799, -57.5761, -27.9173, -8.9794, 10.5637, 43.6832, 0.0000, 0.0000, 0.0000, 0.0000, 0.0000, 0.0000, 0.0000, 0.0000, 0.0000, 0.0000, 2024-01-15 10:00:00.696, 1705312800.696
175, -96.0000, -116.0000, -59.0000, -73.0000, -63.0000, -11.0000, -26.0000, 17.0000, 0.0000, 0.0000, 0.0000, 0.0000, 0.0000, 0.0000, 0.0000, 0.0000, 0.0000, 0.0000, 2024-01-15 10:00:00.700, 1705312800.700
176, -95.3473, -117.9626, -61.9246, -61.0204, -78.5726, -17.1309, -48.7676, 11.9687, 0.0000, 0.0000, 0.0000, 0.0000, 0.0000, 0.0000, 0.0000, 0.0000, 0.0000, 0.0000, 2024-01-15 10:00:00.704, 1705312800.704
177, -80.0523, -111.9536, -55.4766, -45.8490, -65.2864, -3.4894, -47.4813, 32.6692, 0.0000, 0.0000, 0.0000, 0.0000, 0.0000, 0.0000, 0.0000, 0.0000, 0.0000, 0.0000, 2024-01-15 10:00:00.708, 1705312800.708
178, -64.9686, -97.6100, -51.6161, -33.3509, -46.8526, 23.1159, -29.5298, 63.5960, 0.0000, 0.0000, 0.0000, 0.0000, 0.0000, 0.0000, 0.0000, 0.0000, 0.0000, 0.0000, 2024-01-15 10:00:00.712, 1705312800.712
179, -62.0137, -91.3018, -45.2773, -28.6404, -50.8813, 20.7605, -11.3562, 83.6005, 0.0000, 0.0000, 0.0000, 0.0000, 0.0000, 0.0000, 0.0000, 0.0000, 0.0000, 0.0000, 2024-01-15 10:00:00.716, 1705312800.716
180, -59.5658, -99.1875, -41.7744, -47.6314, -62.5074, -4.6988, -0.4704, 86.0272, 0.0000, 0.0000, 0.0000, 0.0000, 0.0000, 0.0000, 0.0000, 0.0000, 0.0000, 0.0000, 2024-01-15 10:00:00.720, 1705312800.720
181, -55.3920, -105.6727, -45.0222, -79.1311, -58.1422, -13.9537, 1.8915, 74.4998, 0.0000, 0.0000, 0.0000, 0.0000, 0.0000, 0.0000, 0.0000, 0.0000, 0.0000, 0.0000, 2024-01-15 10:00:00.724, 1705312800.724
182, -63.7755, -106.9810, -48.2808, -93.1108, -46.8555, -9.7717, -5.3902, 53.8718, 0.0000, 0.0000, 0.0000, 0.0000, 0.0000, 0.0000, 0.0000, 0.0000, 0.0000, 0.0000, 2024-01-15 10:00:00.728, 1705312800.728
183, -77.9781, -116.5758, -53.3294, -88.6261, -50.0514, -16.0465, -21.5501, 29.3485, 0.0000, 0.0000, 0.0000, 0.0000, 0.0000, 0.0000, 0.0000, 0.0000, 0.0000, 0.0000, 2024-01-15 10:00:00.732, 1705312800.732
184, -76.5361, -127.2108, -60.0343, -80.9013, -65.3398, -24.5033, -41.5401, 6.5654, 0.0000, 0.0000, 0.0000, 0.0000, 0.0000, 0.0000, 0.0000, 0.0000, 0.0000, 0.0000, 2024-01-15 10:00:00.736, 1705312800.736
185, -58.7398, -115.2805, -54.3670, -67.2060, -67.5293, -18.4404, -55.0372, -6.6862, 0.0000, 0.0000, 0.0000, 0.0000, 0.0000, 0.0000, 0.0000, 0.0000, 0.0000, 0.0000, 2024-01-15 10:00:00.740, 1705312800.740
186, -41.2090, -88.5682, -35.7922, -44.5475, -47.4789, -7.5774, -53.4626, -4.4574, 0.0000, 0.0000, 0.0000, 0.0000, 0.0000, 0.0000, 0.0000, 0.0000, 0.0000, 0.0000, 2024-01-15 10:00:00.744, 1705312800.744
187, -36.7779, -80.0840, -21.8866, -27.5551, -29.9613, -9.4589, -40.6730, 6.4416, 0.0000, 0.0000, 0.0000, 0.0000, 0.0000, 0.0000, 0.0000, 0.0000, 0.0000, 0.0000, 2024-01-15 10:00:00.748, 1705312800.748
188, -44.9464, -95.1495, -21.2851, -29.5544, -31.6826, -24.4405, -28.9703, 10.1480, 0.0000, 0.0000, 0.0000, 0.0000, 0.0000, 0.0000, 0.0000, 0.0000, 0.0000, 0.0000, 2024-01-15 10:00:00.752, 1705312800.752
189, -50.1537, -109.5392, -30.3072, -46.7540, -33.4372, -39.3730, -25.0458, 0.8151, 0.0000, 0.0000, 0.0000, 0.0000, 0.0000, 0.0000, 0.0000, 0.0000, 0.0000, 0.0000, 2024-01-15 10:00:00.756, 1705312800.756
190, -41.3424, -111.5707, -38.8453, -64.3392, -19.3302, -43.7350, -24.1540, -10.1039, 0.0000, 0.0000, 0.0000, 0.0000, 0.0000, 0.0000, 0.0000, 0.0000, 0.0000, 0.0000, 2024-01-15 10:00:00.760, 1705312800.760
191, -31.5044, -108.9667, -34.7587, -73.5187, -5.4266, -40.6950, -17.6627, -8.7016, 0.0000, 0.0000, 0.0000, 0.0000, 0.0000, 0.0000, 0.0000, 0.0000, 0.0000, 0.0000, 2024-01-15 10:00:00.764, 1705312800.764
192, -33.1735, -104.5235, -22.7156, -76.9412, -9.5732, -39.8229, -6.7225, 3.5655, 0.0000, 0.0000, 0.0000, 0.0000, 0.0000, 0.0000, 0.0000, 0.0000, 0.0000, 0.0000, 2024-01-15 10:00:00.768, 1705312800.768
193, -34.6196, -93.0579, -17.9091, -73.3223, -22.2767, -39.3540, -0.5549, 13.9048, 0.0000, 0.0000, 0.0000, 0.0000, 0.0000, 0.0000, 0.0000, 0.0000, 0.0000, 0.0000, 2024-01-15 10:00:00.772, 1705312800.772
194, -30.1324, -79.0857, -19.4918, -60.4935, -22.2026, -31.3022, 1.8139, 17.5331, 0.0000, 0.0000, 0.0000, 0.0000, 0.0000, 0.0000, 0.0000, 0.0000, 0.0000, 0.0000, 2024-01-15 10:00:00.776, 1705312800.776
195, -35.2087, -76.7169, -21.7531, -53.0809, -7.8192, -21.4437, 9.4891, 19.8910, 0.0000, 0.0000, 0.0000, 0.0000, 0.0000, 0.0000, 0.0000, 0.0000, 0.0000, 0.0000, 2024-01-15 10:00:00.780, 1705312800.780
196, -44.5419, -85.7059, -26.1180, -58.8006, 5.4358, -19.8961, 20.3566, 24.0349, 0.0000, 0.0000, 0.0000, 0.0000, 0.0000, 0.0000, 0.0000, 0.0000, 0.0000, 0.0000, 2024-01-15 10:00:00.784, 1705312800.784
197, -32.1276, -90.0318, -23.9815, -59.2657, 15.3467, -20.8791, 26.4273, 29.8222, 0.0000, 0.0000, 0.0000, 0.0000, 0.0000, 0.0000, 0.0000, 0.0000, 0.0000, 0.0000, 2024-01-15 10:00:00.788, 1705312800.788
198, -9.6549, -91.2742, -11.5693, -51.2046, 25.7918, -17.5000, 27.2315, 36.9822, 0.0000, 0.0000, 0.0000, 0.0000, 0.0000, 0.0000, 0.0000, 0.0000, 0.0000, 0.0000, 2024-01-15 10:00:00.792, 1705312800.792
199, -12.7917, -107.0200, -9.1153, -56.2102, 22.3064, -14.7929, 22.5545, 43.5858, 0.0000, 0.0000, 0.0000, 0.0000, 0.0000, 0.0000, 0.0000, 0.0000, 0.0000, 0.0000, 2024-01-15 10:00:00.796, 1705312800.796
200, -33.0000, -127.0000, -23.0000, -70.0000, 3.0000, -10.0000, 13.0000, 51.0000, 0.0000, 0.0000, 0.0000, 0.0000, 0.0000, 0.0000, 0.0000, 0.0000, 0.0000, 0.0000, 2024-01-15 10:00:00.800, 1705312800.800
201, -39.8812, -123.9140, -31.0376, -67.2713, -2.6829, 2.0738, 7.2053, 59.7837, 0.0000, 0.0000, 0.0000, 0.0000, 0.0000, 0.0000, 0.0000, 0.0000, 0.0000, 0.0000, 2024-01-15 10:00:00.804, 1705312800.804
202, -38.9634, -107.3565, -25.8696, -49.8937, 9.6876, 4.2729, 7.1048, 57.8466, 0.0000, 0.0000, 0.0000, 0.0000, 0.0000, 0.0000, 0.0000, 0.0000, 0.0000, 0.0000, 2024-01-15 10:00:00.808, 1705312800.808
203, -40.3473, -106.7756, -18.8666, -35.3105, 7.9586, -12.7031, 3.7903, 38.0430, 0.0000, 0.0000, 0.0000, 0.0000, 0.0000, 0.0000, 0.0000, 0.0000, 0.0000, 0.0000, 2024-01-15 10:00:00.812, 1705312800.812
204, -30.9843, -116.9292, -10.2692, -27.5540, -11.6425, -22.5605, -2.5745, 17.2189, 0.0000, 0.0000, 0.0000, 0.0000, 0.0000, 0.0000, 0.0000, 0.0000, 0.0000, 0.0000, 2024-01-15 10:00:00.816, 1705312800.816
205, -18.6143, -114.2488, -0.5332, -26.3549, -22.3897, -13.3192, -5.5167, 10.1042, 0.0000, 0.0000, 0.0000, 0.0000, 0.0000, 0.0000, 0.0000, 0.0000, 0.0000, 0.0000, 2024-01-15 10:00:00.820, 1705312800.820
206, -26.5270, -100.1416, -1.5672, -29.4664, -18.0771, -8.9571, -6.7183, 9.9504, 0.0000, 0.0000, 0.0000, 0.0000, 0.0000, 0.0000, 0.0000, 0.0000, 0.0000, 0.0000, 2024-01-15 10:00:00.824, 1705312800.824
207, -42.3869, -92.0936, -13.3048, -29.9886, -9.8215, -12.9743, -6.8256, 10.6792, 0.0000, 0.0000, 0.0000, 0.0000, 0.0000, 0.0000, 0.0000, 0.0000, 0.0000, 0.0000, 2024-01-15 10:00:00.828, 1705312800.828
208, -42.9205, -96.4714, -20.3772, -28.8998, -5.9528, -5.6704, -3.1353, 13.5917, 0.0000, 0.0000, 0.0000, 0.0000, 0.0000, 0.0000, 0.0000, 0.0000, 0.0000, 0.0000, 2024-01-15 10:00:00.832, 1705312800.832
209, -34.7638, -103.0997, -15.0048, -27.7781, -11.2478, 4.2405, -0.0425, 14.6645, 0.0000, 0.0000, 0.0000, 0.0000, 0.0000, 0.0000, 0.0000, 0.0000, 0.0000, 0.0000, 2024-01-15 10:00:00.836, 1705312800.836
210, -27.6294, -98.6938, -4.7006, -21.1652, -15.7923, -1.1675, -0.9047, 12.4610, 0.0000, 0.0000, 0.0000, 0.0000, 0.0000, 0.0000, 0.0000, 0.0000, 0.0000, 0.0000, 2024-01-15 10:00:00.840, 1705312800.840
211, -21.8247, -89.7351, -2.2300, -17.1962, -10.6581, -11.5034, -4.3434, 9.7497, 0.0000, 0.0000, 0.0000, 0.0000, 0.0000, 0.0000, 0.0000, 0.0000, 0.0000, 0.0000, 2024-01-15 10:00:00.844, 1705312800.844
212, -26.3697, -96.1163, -11.9073, -30.7503, -13.7942, -18.4186, -14.0035, 1.6220, 0.0000, 0.0000, 0.0000, 0.0000, 0.0000, 0.0000, 0.0000, 0.0000, 0.0000, 0.0000, 2024-01-15 10:00:00.848, 1705312800.848
213, -39.3119, -113.4189, -25.6947, -52.2480, -30.5068, -28.1093, -27.0259, -11.0888, 0.0000, 0.0000, 0.0000, 0.0000, 0.0000, 0.0000, 0.0000, 0.0000, 0.0000, 0.0000, 2024-01-15 10:00:00.852, 1705312800.852
214, -41.3831, -117.4022, -33.8189, -61.9135, -30.9319, -30.4881, -27.5967, -12.5457, 0.0000, 0.0000, 0.0000, 0.0000, 0.0000, 0.0000, 0.0000, 0.0000, 0.0000, 0.0000, 2024-01-15 10:00:00.856, 1705312800.856
215, -33.2105, -106.8971, -31.1869, -58.4478, -9.8053, -14.9512, -11.7923, 3.0283, 0.0000, 0.0000, 0.0000, 0.0000, 0.0000, 0.0000, 0.0000, 0.0000, 0.0000, 0.0000, 2024-01-15 10:00:00.860, 1705312800.860
216, -28.9257, -98.6847, -18.5509, -49.0449, 4.5193, 2.3515, 8.5275, 23.3084, 0.0000, 0.0000, 0.0000, 0.0000, 0.0000, 0.0000, 0.0000, 0.0000, 0.0000, 0.0000, 2024-01-15 10:00:00.864, 1705312800.864
217, -22.3612, -92.6784, -5.6333, -37.2130, 10.9811, 10.5507, 27.6283, 38.8278, 0.0000, 0.0000, 0.0000, 0.0000, 0.0000, 0.0000, 0.0000, 0.0000, 0.0000, 0.0000, 2024-01-15 10:00:00.868, 1705312800.868
218, -8.4000, -82.2356, 0.3924, -26.2911, 25.0457, 20.7442, 43.1374, 46.9447, 0.0000, 0.0000, 0.0000, 0.0000, 0.0000, 0.0000, 0.0000, 0.0000, 0.0000, 0.0000, 2024-01-15 10:00:00.872, 1705312800.872
219, -5.2562, -76.8950, 3.7777, -18.4250, 33.3368, 28.4033, 48.0716, 44.1510, 0.0000, 0.0000, 0.0000, 0.0000, 0.0000, 0.0000, 0.0000, 0.0000, 0.0000, 0.0000, 2024-01-15 10:00:00.876, 1705312800.876
220, -21.1828, -83.5862, 3.2107, -16.7073, 25.9160, 15.0783, 44.1739, 30.9136, 0.0000, 0.0000, 0.0000, 0.0000, 0.0000, 0.0000, 0.0000, 0.0000, 0.0000, 0.0000, 2024-01-15 10:00:00.880, 1705312800.880
221, -34.3132, -86.1978, -5.9028, -22.4802, 27.7144, -2.7204, 43.0222, 17.4459, 0.0000, 0.0000, 0.0000, 0.0000, 0.0000, 0.0000, 0.0000, 0.0000, 0.0000, 0.0000, 2024-01-15 10:00:00.884, 1705312800.884
222, -23.2684, -67.6024, -6.7862, -21.8639, 52.6615, 11.8273, 51.6089, 19.4930, 0.0000, 0.0000, 0.0000, 0.0000, 0.0000, 0.0000, 0.0000, 0.0000, 0.0000, 0.0000, 2024-01-15 10:00:00.888, 1705312800.888
223, 3.9602, -38.8615, 17.4768, -0.2707, 71.8139, 45.8516, 67.4222, 41.8955, 0.0000, 0.0000, 0.0000, 0.0000, 0.0000, 0.0000, 0.0000, 0.0000, 0.0000, 0.0000, 2024-01-15 10:00:00.892, 1705312800.892
224, 21.0468, -24.8220, 47.1571, 27.4404, 58.8415, 49.3519, 79.6368, 66.8239, 0.0000, 0.0000, 0.0000, 0.0000, 0.0000, 0.0000, 0.0000, 0.0000, 0.0000, 0.0000, 2024-01-15 10:00:00.896, 1705312800.896
225, 18.0000, -28.0000, 52.0000, 33.0000, 33.0000, 23.0000, 79.0000, 76.0000, 0.0000, 0.0000, 0.0000, 0.0000, 0.0000, 0.0000, 0.0000, 0.0000, 0.0000, 0.0000, 2024-01-15 10:00:00.900, 1705312800.900
226, 12.4597, -30.0512, 35.3151, 17.4339, 27.8355, 16.0491, 72.1104, 75.6817, 0.0000, 0.0000, 0.0000, 0.0000, 0.0000, 0.0000, 0.0000, 0.0000, 0.0000, 0.0000, 2024-01-15 10:00:00.904, 1705312800.904
227, 22.8634, -20.2881, 28.0688, 11.7182, 48.7412, 38.1970, 72.6687, 79.4653, 0.0000, 0.0000, 0.0000, 0.0000, 0.0000, 0.0000, 0.0000, 0.0000, 0.0000, 0.0000, 2024-01-15 10:00:00.908, 1705312800.908
228, 46.1495, -3.0447, 52.1829, 33.2493, 85.8903, 53.7548, 83.3084, 87.1300, 0.0000, 0.0000, 0.0000, 0.0000, 0.0000, 0.0000, 0.0000, 0.0000, 0.0000, 0.0000, 2024-01-15 10:00:00.912, 1705312800.912
229, 60.5451, 6.9520, 89.7930, 57.7519, 120.0207, 46.4288, 95.5601, 91.0672, 0.0000, 0.0000, 0.0000, 0.0000, 0.0000, 0.0000, 0.0000, 0.0000, 0.0000, 0.0000, 2024-01-15 10:00:00.916, 1705312800.916
230, 44.4895, -5.0898, 97.4224, 53.0312, 112.5366, 28.2607, 96.2828, 82.6661, 0.0000, 0.0000, 0.0000, 0.0000, 0.0000, 0.0000, 0.0000, 0.0000, 0.0000, 0.0000, 2024-01-15 10:00:00.920, 1705312800.920
231, 10.2729, -25.6137, 67.7114, 30.1429, 63.4623, 18.7898, 79.6379, 61.4965, 0.0000, 0.0000, 0.0000, 0.0000, 0.0000, 0.0000, 0.0000, 0.0000, 0.0000, 0.0000, 2024-01-15 10:00:00.924, 1705312800.924
232, -1.0186, -24.8796, 40.0951, 22.0079, 34.7453, 31.8842, 58.2157, 43.8547, 0.0000, 0.0000, 0.0000, 0.0000, 0.0000, 0.0000, 0.0000, 0.0000, 0.0000, 0.0000, 2024-01-15 10:00:00.928, 1705312800.928
233, 15.6183, -12.4447, 32.1478, 25.1052, 43.1854, 47.2532, 43.7246, 38.5007, 0.0000, 0.0000, 0.0000, 0.0000, 0.0000, 0.0000, 0.0000, 0.0000, 0.0000, 0.0000, 2024-01-15 10:00:00.932, 1705312800.932
234, 27.0498, -14.4559, 24.3927, 16.3500, 43.4347, 38.6707, 33.2258, 35.4850, 0.0000, 0.0000, 0.0000, 0.0000, 0.0000, 0.0000, 0.0000, 0.0000, 0.0000, 0.0000, 2024-01-15 10:00:00.936, 1705312800.936
235, 35.8634, -12.2089, 20.4203, 5.6139, 44.1278, 34.9776, 32.5424, 38.7890, 0.0000, 0.0000, 0.0000, 0.0000, 0.0000, 0.0000, 0.0000, 0.0000, 0.0000, 0.0000, 2024-01-15 10:00:00.940, 1705312800.940
236, 59.4439, 4.7034, 39.6572, 12.8369, 69.5139, 59.6778, 49.2808, 60.7517, 0.0000, 0.0000, 0.0000, 0.0000, 0.0000, 0.0000, 0.0000, 0.0000, 0.0000, 0.0000, 2024-01-15 10:00:00.944, 1705312800.944
237, 63.3457, -8.2091, 57.0133, 21.4974, 68.1018, 68.1174, 63.2123, 85.1717, 0.0000, 0.0000, 0.0000, 0.0000, 0.0000, 0.0000, 0.0000, 0.0000, 0.0000, 0.0000, 2024-01-15 10:00:00.948, 1705312800.948
238, 30.4265, -51.3884, 38.5218, 9.8903, 33.0108, 45.8016, 60.1489, 92.6513, 0.0000, 0.0000, 0.0000, 0.0000, 0.0000, 0.0000, 0.0000, 0.0000, 0.0000, 0.0000, 2024-01-15 10:00:00.952, 1705312800.952
239, 13.6692, -59.2336, 13.5526, -3.7634, 39.8921, 39.5840, 59.6433, 90.3138, 0.0000, 0.0000, 0.0000, 0.0000, 0.0000, 0.0000, 0.0000, 0.0000, 0.0000, 0.0000, 2024-01-15 10:00:00.956, 1705312800.956
240, 24.8368, -35.6355, 20.0513, 0.4279, 65.3365, 41.3411, 64.4690, 79.6388, 0.0000, 0.0000, 0.0000, 0.0000, 0.0000, 0.0000, 0.0000, 0.0000, 0.0000, 0.0000, 2024-01-15 10:00:00.960, 1705312800.960
241, 11.8931, -44.1528, 25.2219, 0.7034, 30.3380, 17.0239, 54.1692, 54.5418, 0.0000, 0.0000, 0.0000, 0.0000, 0.0000, 0.0000, 0.0000, 0.0000, 0.0000, 0.0000, 2024-01-15 10:00:00.964, 1705312800.964
242, -8.3574, -63.2433, -0.2218, -14.3306, -5.4059, 6.9311, 41.2699, 33.6274, 0.0000, 0.0000, 0.0000, 0.0000, 0.0000, 0.0000, 0.0000, 0.0000, 0.0000, 0.0000, 2024-01-15 10:00:00.968, 1705312800.968
243, 21.8758, -36.2466, -7.8459, -7.6862, 24.1492, 30.3975, 47.2639, 31.7749, 0.0000, 0.0000, 0.0000, 0.0000, 0.0000, 0.0000, 0.0000, 0.0000, 0.0000, 0.0000, 2024-01-15 10:00:00.972, 1705312800.972
244, 59.9675, -3.8825, 23.2133, 25.9933, 34.2820, 31.1701, 50.8373, 32.2850, 0.0000, 0.0000, 0.0000, 0.0000, 0.0000, 0.0000, 0.0000, 0.0000, 0.0000, 0.0000, 2024-01-15 10:00:00.976, 1705312800.976
245, 36.1120, -20.6099, 23.9102, 27.7383, -17.9041, 9.6994, 31.9692, 25.1441, 0.0000, 0.0000, 0.0000, 0.0000, 0.0000, 0.0000, 0.0000, 0.0000, 0.0000, 0.0000, 2024-01-15 10:00:00.980, 1705312800.980
246, -9.4558, -45.8791, -26.2692, -13.3607, -44.1868, 16.7977, 8.9791, 20.6121, 0.0000, 0.0000, 0.0000, 0.0000, 0.0000, 0.0000, 0.0000, 0.0000, 0.0000, 0.0000, 2024-01-15 10:00:00.984, 1705312800.984
247, -14.6198, -36.5624, -51.9430, -31.3871, -19.1796, 34.0903, -2.9515, 22.5703, 0.0000, 0.0000, 0.0000, 0.0000, 0.0000, 0.0000, 0.0000, 0.0000, 0.0000, 0.0000, 2024-01-15 10:00:00.988, 1705312800.988
248, -3.0951, -22.7568, -32.2360, -9.5044, -0.5816, 32.6071, -6.2110, 31.9780, 0.0000, 0.0000, 0.0000, 0.0000, 0.0000, 0.0000, 0.0000, 0.0000, 0.0000, 0.0000, 2024-01-15 10:00:00.992, 1705312800.992
249, -5.7523, -30.4386, -25.2930, 1.2905, 0.4591, 34.6845, -1.6452, 48.6672, 0.0000, 0.0000, 0.0000, 0.0000, 0.0000, 0.0000, 0.0000, 0.0000, 0.0000, 0.0000, 2024-01-15 10:00:00.996, 1705312800.996
250, -3.0000, -41.0000, -40.0000, -10.0000, -11.0000, 34.0000, 1.0000, 56.0000, 0.0000, 0.0000, 0.0000, 0.0000, 0.0000, 0.0000, 0.0000, 0.0000, 0.0000, 0.0000, 2024-01-15 10:00:01.000, 1705312801.000
251, 7.1905, -44.2826, -44.7229, -16.3776, -45.3107, 9.0578, -12.3361, 42.3304, 0.0000, 0.0000, 0.0000, 0.0000, 0.0000, 0.0000, 0.0000, 0.0000, 0.0000, 0.0000, 2024-01-15 10:00:01.004, 1705312801.004
252, -5.5063, -53.4653, -50.5037, -21.0443, -74.0353, -10.1108, -34.7762, 20.9194, 0.0000, 0.0000, 0.0000, 0.0000, 0.0000, 0.0000, 0.0000, 0.0000, 0.0000, 0.0000, 2024-01-15 10:00:01.008, 1705312801.008
253, -36.9217, -70.2580, -70.6144, -34.2716, -70.9165, -4.4787, -50.8395, 6.8527, 0.0000, 0.0000, 0.0000, 0.0000, 0.0000, 0.0000, 0.0000, 0.0000, 0.0000, 0.0000, 2024-01-15 10:00:01.012, 1705312801.012
254, -44.1684, -74.9536, -79.4615, -43.6721, -51.8885, 8.7198, -53.0883, 8.2706, 0.0000, 0.0000, 0.0000, 0.0000, 0.0000, 0.0000, 0.0000, 0.0000, 0.0000, 0.0000, 2024-01-15 10:00:01.016, 1705312801.016
255, -12.6001, -54.4318, -60.5282, -38.7991, -22.4181, 31.3075, -35.0204, 31.1405, 0.0000, 0.0000, 0.0000, 0.0000, 0.0000, 0.0000, 0.0000, 0.0000, 0.0000, 0.0000, 2024-01-15 10:00:01.020, 1705312801.020
0, 19.8246, -29.0127, -27.4742, -19.7942, 8.0161, 50.0622, -1.9456, 60.9465, 0.0000, 0.0000, 0.0000, 0.0000, 0.0000, 0.0000, 0.0000, 0.0000, 0.0000, 0.0000, 2024-01-15 10:00:01.024, 1705312801.024
1, 19.7556, -28.0775, -6.6338, -0.4497, 2.2623, 28.7549, 23.4516, 71.1285, 0.0000, 0.0000, 0.0000, 0.0000, 0.0000, 0.0000, 0.0000, 0.0000, 0.0000, 0.0000, 2024-01-15 10:00:01.028, 1705312801.028
2, 6.2498, -42.2011, -16.9866, -3.4666, -30.7228, -8.1826, 30.1478, 60.2066, 0.0000, 0.0000, 0.0000, 0.0000, 0.0000, 0.0000, 0.0000, 0.0000, 0.0000, 0.0000, 2024-01-15 10:00:01.032, 1705312801.032
3, 7.9945, -42.1641, -37.4031, -18.5607, -41.8476, -11.4518, 27.7667, 47.6716, 0.0000, 0.0000, 0.0000, 0.0000, 0.0000, 0.0000, 0.0000, 0.0000, 0.0000, 0.0000, 2024-01-15 10:00:01.036, 1705312801.036
4, 13.4294, -30.7296, -31.7972, -14.7218, -27.0598, 7.7155, 27.8438, 49.2046, 0.0000, 0.0000, 0.0000, 0.0000, 0.0000, 0.0000, 0.0000, 0.0000, 0.0000, 0.0000, 2024-01-15 10:00:01.040, 1705312801.040
5, 9.7964, -25.9451, -10.8689, -0.3349, -5.5392, 27.2402, 39.1209, 71.9627, 0.0000, 0.0000, 0.0000, 0.0000, 0.0000, 0.0000, 0.0000, 0.0000, 0.0000, 0.0000, 2024-01-15 10:00:01.044, 1705312801.044
6, 14.5922, -26.5698, 2.2301, 5.1471, 17.0441, 44.1416, 61.4419, 104.9731, 0.0000, 0.0000, 0.0000, 0.0000, 0.0000, 0.0000, 0.0000, 0.0000, 0.0000, 0.0000, 2024-01-15 10:00:01.048, 1705312801.048
7, 28.7273, -31.6091, 17.7686, 12.6827, 22.1148, 37.9092, 79.3050, 123.0117, 0.0000, 0.0000, 0.0000, 0.0000, 0.0000, 0.0000, 0.0000, 0.0000, 0.0000, 0.0000, 2024-01-15 10:00:01.052, 1705312801.052
8, 29.5002, -46.8780, 29.1698, 16.5127, 8.6886, 15.7985, 83.1125, 120.4947, 0.0000, 0.0000, 0.0000, 0.0000, 0.0000, 0.0000, 0.0000, 0.0000, 0.0000, 0.0000, 2024-01-15 10:00:01.056, 1705312801.056
9, 20.5104, -60.5468, 10.9230, -2.4999, 6.7994, 19.9614, 78.4788, 111.9272, 0.0000, 0.0000, 0.0000, 0.0000, 0.0000, 0.0000, 0.0000, 0.0000, 0.0000, 0.0000, 2024-01-15 10:00:01.060, 1705312801.060
10, 17.5157, -58.4191, -18.8596, -19.5219, 9.2665, 38.4460, 66.2530, 101.9205, 0.0000, 0.0000, 0.0000, 0.0000, 0.0000, 0.0000, 0.0000, 0.0000, 0.0000, 0.0000, 2024-01-15 10:00:01.064, 1705312801.064
11, 14.6878, -47.2309, -29.2298, -10.8600, -1.8634, 37.1127, 46.5137, 91.9575, 0.0000, 0.0000, 0.0000, 0.0000, 0.0000, 0.0000, 0.0000, 0.0000, 0.0000, 0.0000, 2024-01-15 10:00:01.068, 1705312801.068
12, 15.4725, -35.4510, -22.9791, 1.1158, 7.2276, 38.5137, 32.9290, 92.3497, 0.0000, 0.0000, 0.0000, 0.0000, 0.0000, 0.0000, 0.0000, 0.0000, 0.0000, 0.0000, 2024-01-15 10:00:01.072, 1705312801.072
13, 31.9512, -26.5732, -2.2622, 8.3146, 40.4036, 50.9630, 32.7442, 99.1967, 0.0000, 0.0000, 0.0000, 0.0000, 0.0000, 0.0000, 0.0000, 0.0000, 0.0000, 0.0000, 2024-01-15 10:00:01.076, 1705312801.076
14, 40.7906, -30.7085, 25.5993, 21.5333, 40.3052, 35.8425, 34.6335, 92.3883, 0.0000, 0.0000, 0.0000, 0.0000, 0.0000, 0.0000, 0.0000, 0.0000, 0.0000, 0.0000, 2024-01-15 10:00:01.080, 1705312801.080
15, 20.0046, -45.1866, 25.6119, 19.4440, 9.0516, 3.4842, 31.0473, 67.6998, 0.0000, 0.0000, 0.0000, 0.0000, 0.0000, 0.0000, 0.0000, 0.0000, 0.0000, 0.0000, 2024-01-15 10:00:01.084, 1705312801.084
16, 0.0062, -49.5955, -1.1164, -6.3139, 5.8707, 3.2208, 27.9173, 43.8066, 0.0000, 0.0000, 0.0000, 0.0000, 0.0000, 0.0000, 0.0000, 0.0000, 0.0000, 0.0000, 2024-01-15 10:00:01.088, 1705312801.088
17, 9.0881, -40.9038, -6.6004, -16.5809, 28.0119, 30.2086, 31.8463, 38.2625, 0.0000, 0.0000, 0.0000, 0.0000, 0.0000, 0.0000, 0.0000, 0.0000, 0.0000, 0.0000, 2024-01-15 10:00:01.092, 1705312801.092
18, 27.8820, -33.6598, 16.6976, 4.1708, 35.4411, 46.0265, 42.6453, 49.8928, 0.0000, 0.0000, 0.0000, 0.0000, 0.0000, 0.0000, 0.0000, 0.0000, 0.0000, 0.0000, 2024-01-15 10:00:01.096, 1705312801.096
19, 35.0000, -30.0000, 35.0000, 26.0000, 32.0000, 40.0000, 54.0000, 64.0000, 0.0000, 0.0000, 0.0000, 0.0000, 0.0000, 0.0000, 0.0000, 0.0000, 0.0000, 0.0000, 2024-01-15 10:00:01.100, 1705312801.100
20, 32.1296, -26.2918, 40.6514, 31.2676, 34.7920, 26.7623, 61.0216, 72.3874, 0.0000, 0.0000, 0.0000, 0.0000, 0.0000, 0.0000, 0.0000, 0.0000, 0.0000, 0.0000, 2024-01-15 10:00:01.104, 1705312801.104
21, 24.4717, -24.0688, 45.2663, 29.1809, 40.2873, 26.1357, 66.4216, 78.9055, 0.0000, 0.0000, 0.0000, 0.0000, 0.0000, 0.0000, 0.0000, 0.0000, 0.0000, 0.0000, 2024-01-15 10:00:01.108, 1705312801.108
22, 21.4956, -17.4745, 51.9754, 34.3897, 43.8366, 40.9631, 70.8327, 84.5700, 0.0000, 0.0000, 0.0000, 0.0000, 0.0000, 0.0000, 0.0000, 0.0000, 0.0000, 0.0000, 2024-01-15 10:00:01.112, 1705312801.112
23, 29.8555, -4.1798, 60.8456, 51.0590, 41.8284, 52.8988, 68.2005, 85.8474, 0.0000, 0.0000, 0.0000, 0.0000, 0.0000, 0.0000, 0.0000, 0.0000, 0.0000, 0.0000, 2024-01-15 10:00:01.116, 1705312801.116
24, 37.2440, 0.6910, 65.2234, 63.0782, 32.8481, 55.1538, 58.7908, 84.6093, 0.0000, 0.0000, 0.0000, 0.0000, 0.0000, 0.0000, 0.0000, 0.0000, 0.0000, 0.0000, 2024-01-15 10:00:01.120, 1705312801.120
25, 35.0984, -9.5759, 58.5896, 60.9470, 25.0441, 54.5987, 50.3387, 83.9928, 0.0000, 0.0000, 0.0000, 0.0000, 0.0000, 0.0000, 0.0000, 0.0000, 0.0000, 0.0000, 2024-01-15 10:00:01.124, 1705312801.124
26, 31.2771, -21.3141, 48.9571, 60.6326, 23.0357, 51.0756, 47.2968, 84.8140, 0.0000, 0.0000, 0.0000, 0.0000, 0.0000, 0.0000, 0.0000, 0.0000, 0.0000, 0.0000, 2024-01-15 10:00:01.128, 1705312801.128
27, 26.9351, -25.1258, 43.2574, 65.5472, 29.0011, 52.2796, 51.3337, 89.0736, 0.0000, 0.0000, 0.0000, 0.0000, 0.0000, 0.0000, 0.0000, 0.0000, 0.0000, 0.0000, 2024-01-15 10:00:01.132, 1705312801.132
28, 21.0726, -22.6077, 43.4500, 61.4610, 44.8837, 66.0553, 61.2399, 95.1243, 0.0000, 0.0000, 0.0000, 0.0000, 0.0000, 0.0000, 0.0000, 0.0000, 0.0000, 0.0000, 2024-01-15 10:00:01.136, 1705312801.136
29, 19.5964, -19.6337, 51.8516, 52.6472, 51.2090, 73.6894, 69.6175, 99.8991, 0.0000, 0.0000, 0.0000, 0.0000, 0.0000, 0.0000, 0.0000, 0.0000, 0.0000, 0.0000, 2024-01-15 10:00:01.140, 1705312801.140
30, 14.3084, -26.8113, 51.2335, 43.1532, 31.3406, 64.2100, 72.0193, 106.4937, 0.0000, 0.0000, 0.0000, 0.0000, 0.0000, 0.0000, 0.0000, 0.0000, 0.0000, 0.0000, 2024-01-15 10:00:01.144, 1705312801.144
31, 1.5093, -38.9389, 29.1204, 23.8892, 13.3603, 55.2489, 71.4645, 112.8342, 0.0000, 0.0000, 0.0000, 0.0000, 0.0000, 0.0000, 0.0000, 0.0000, 0.0000, 0.0000, 2024-01-15 10:00:01.148, 1705312801.148
32, 9.1773, -29.0192, 19.9583, 12.3548, 25.6254, 53.8832, 70.7251, 111.0294, 0.0000, 0.0000, 0.0000, 0.0000, 0.0000, 0.0000, 0.0000, 0.0000, 0.0000, 0.0000, 2024-01-15 10:00:01.152, 1705312801.152
33, 41.2403, 2.2512, 45.9894, 29.4032, 47.1552, 56.6203, 72.7048, 107.0479, 0.0000, 0.0000, 0.0000, 0.0000, 0.0000, 0.0000, 0.0000, 0.0000, 0.0000, 0.0000, 2024-01-15 10:00:01.156, 1705312801.156
34, 49.6657, 14.3621, 65.8297, 48.6219, 50.3784, 64.1166, 78.9857, 108.0101, 0.0000, 0.0000, 0.0000, 0.0000, 0.0000, 0.0000, 0.0000, 0.0000, 0.0000, 0.0000, 2024-01-15 10:00:01.160, 1705312801.160
35, 19.8908, -5.2898, 52.2822, 43.9126, 41.7813, 62.1215, 82.3327, 102.2537, 0.0000, 0.0000, 0.0000, 0.0000, 0.0000, 0.0000, 0.0000, 0.0000, 0.0000, 0.0000, 2024-01-15 10:00:01.164, 1705312801.164
36, 0.4144, -21.6428, 35.9311, 32.9583, 42.6235, 49.8931, 78.7772, 87.9681, 0.0000, 0.0000, 0.0000, 0.0000, 0.0000, 0.0000, 0.0000, 0.0000, 0.0000, 0.0000, 2024-01-15 10:00:01.168, 1705312801.168
37, 14.8949, -15.9720, 37.6057, 31.4300, 61.8115, 55.2522, 76.5285, 84.5662, 0.0000, 0.0000, 0.0000, 0.0000, 0.0000, 0.0000, 0.0000, 0.0000, 0.0000, 0.0000, 2024-01-15 10:00:01.172, 1705312801.172
38, 32.9725, -8.1353, 44.2408, 31.7270, 77.3746, 63.4015, 74.9298, 91.4062, 0.0000, 0.0000, 0.0000, 0.0000, 0.0000, 0.0000, 0.0000, 0.0000, 0.0000, 0.0000, 2024-01-15 10:00:01.176, 1705312801.176
39, 32.0618, -13.5321, 42.9682, 25.9482, 57.9491, 36.0194, 62.1617, 87.7280, 0.0000, 0.0000, 0.0000, 0.0000, 0.0000, 0.0000, 0.0000, 0.0000, 0.0000, 0.0000, 2024-01-15 10:00:01.180, 1705312801.180
40, 22.4637, -23.8832, 29.7436, 9.8489, 22.0578, 8.2417, 42.8450, 76.0477, 0.0000, 0.0000, 0.0000, 0.0000, 0.0000, 0.0000, 0.0000, 0.0000, 0.0000, 0.0000, 2024-01-15 10:00:01.184, 1705312801.184
41, 24.3013, -24.1780, 17.4358, -4.7972, 16.3462, 23.3432, 32.2891, 73.2404, 0.0000, 0.0000, 0.0000, 0.0000, 0.0000, 0.0000, 0.0000, 0.0000, 0.0000, 0.0000, 2024-01-15 10:00:01.188, 1705312801.188
42, 42.4298, -11.1411, 27.9619, 4.6165, 32.5603, 38.8091, 28.4607, 76.1795, 0.0000, 0.0000, 0.0000, 0.0000, 0.0000, 0.0000, 0.0000, 0.0000, 0.0000, 0.0000, 2024-01-15 10:00:01.192, 1705312801.192
43, 53.5250, -0.7248, 48.9291, 22.7473, 30.7301, 21.8840, 21.7808, 73.7530, 0.0000, 0.0000, 0.0000, 0.0000, 0.0000, 0.0000, 0.0000, 0.0000, 0.0000, 0.0000, 2024-01-15 10:00:01.196, 1705312801.196
44, 41.0000, -5.0000, 52.0000, 17.0000, 17.0000, 11.0000, 16.0000, 67.0000, 0.0000, 0.0000, 0.0000, 0.0000, 0.0000, 0.0000, 0.0000, 0.0000, 0.0000, 0.0000, 2024-01-15 10:00:01.200, 1705312801.200
45, 31.7722, -8.3423, 49.1908, 6.1122, 20.8790, 22.2413, 18.6762, 62.0611, 0.0000, 0.0000, 0.0000, 0.0000, 0.0000, 0.0000, 0.0000, 0.0000, 0.0000, 0.0000, 2024-01-15 10:00:01.204, 1705312801.204
46, 46.1904, 0.8075, 59.7855, 19.3097, 42.7296, 32.7264, 29.4662, 63.8431, 0.0000, 0.0000, 0.0000, 0.0000, 0.0000, 0.0000, 0.0000, 0.0000, 0.0000, 0.0000, 2024-01-15 10:00:01.208, 1705312801.208
47, 58.6124, 6.0758, 67.0791, 35.1563, 66.5377, 41.5648, 44.1211, 73.4907, 0.0000, 0.0000, 0.0000, 0.0000, 0.0000, 0.0000, 0.0000, 0.0000, 0.0000, 0.0000, 2024-01-15 10:00:01.212, 1705312801.212
48, 61.0684, 7.3744, 65.6793, 39.2308, 80.6423, 53.4397, 58.5660, 85.4154, 0.0000, 0.0000, 0.0000, 0.0000, 0.0000, 0.0000, 0.0000, 0.0000, 0.0000, 0.0000, 2024-01-15 10:00:01.216, 1705312801.216
49, 78.0033, 25.3573, 77.8213, 54.9363, 82.9906, 62.7798, 72.5293, 96.6054, 0.0000, 0.0000, 0.0000, 0.0000, 0.0000, 0.0000, 0.0000, 0.0000, 0.0000, 0.0000, 2024-01-15 10:00:01.220, 1705312801.220
50, 90.7483, 40.6278, 96.9016, 76.6949, 84.6370, 74.0445, 89.3756, 110.2636, 0.0000, 0.0000, 0.0000, 0.0000, 0.0000, 0.0000, 0.0000, 0.0000, 0.0000, 0.0000, 2024-01-15 10:00:01.224, 1705312801.224
51, 66.4838, 20.8053, 96.0891, 75.8929, 91.0814, 81.6019, 107.1073, 124.1550, 0.0000, 0.0000, 0.0000, 0.0000, 0.0000, 0.0000, 0.0000, 0.0000, 0.0000, 0.0000, 2024-01-15 10:00:01.228, 1705312801.228
52, 43.8469, -3.1623, 85.8847, 66.0730, 95.6036, 73.8337, 118.4066, 131.8917, 0.0000, 0.0000, 0.0000, 0.0000, 0.0000, 0.0000, 0.0000, 0.0000, 0.0000, 0.0000, 2024-01-15 10:00:01.232, 1705312801.232
53, 63.1893, 6.8313, 91.2354, 70.9297, 99.7373, 67.9528, 120.8194, 133.8659, 0.0000, 0.0000, 0.0000, 0.0000, 0.0000, 0.0000, 0.0000, 0.0000, 0.0000, 0.0000, 2024-01-15 10:00:01.236, 1705312801.236
54, 83.1249, 18.9183, 101.7458, 75.4991, 105.0181, 76.0002, 117.4070, 134.1078, 0.0000, 0.0000, 0.0000, 0.0000, 0.0000, 0.0000, 0.0000, 0.0000, 0.0000, 0.0000, 2024-01-15 10:00:01.240, 1705312801.240
55, 71.9656, 5.9686, 100.7490, 70.7959, 103.7578, 79.8922, 112.7722, 135.1229, 0.0000, 0.0000, 0.0000, 0.0000, 0.0000, 0.0000, 0.0000, 0.0000, 0.0000, 0.0000, 2024-01-15 10:00:01.244, 1705312801.244
56, 64.9837, 0.4448, 100.8958, 75.6373, 102.5211, 75.7986, 110.8443, 137.6977, 0.0000, 0.0000, 0.0000, 0.0000, 0.0000, 0.0000, 0.0000, 0.0000, 0.0000, 0.0000, 2024-01-15 10:00:01.248, 1705312801.248
57, 69.1383, 11.8495, 109.3400, 86.4781, 107.2334, 71.6255, 107.5144, 135.9426, 0.0000, 0.0000, 0.0000, 0.0000, 0.0000, 0.0000, 0.0000, 0.0000, 0.0000, 0.0000, 2024-01-15 10:00:01.252, 1705312801.252
58, 50.8707, 8.8318, 106.8280, 80.0224, 98.3002, 59.9735, 94.1644, 122.2149, 0.0000, 0.0000, 0.0000, 0.0000, 0.0000, 0.0000, 0.0000, 0.0000, 0.0000, 0.0000, 2024-01-15 10:00:01.256, 1705312801.256
59, 25.7225, -3.5665, 88.5555, 62.6807, 74.4556, 47.2182, 74.7919, 101.7420, 0.0000, 0.0000, 0.0000, 0.0000, 0.0000, 0.0000, 0.0000, 0.0000, 0.0000, 0.0000, 2024-01-15 10:00:01.260, 1705312801.260
60, 30.3403, -1.9558, 73.7434, 53.6783, 62.8859, 44.2132, 60.3433, 85.9154, 0.0000, 0.0000, 0.0000, 0.0000, 0.0000, 0.0000, 0.0000, 0.0000, 0.0000, 0.0000, 2024-01-15 10:00:01.264, 1705312801.264
61, 48.7343, -1.2892, 66.4755, 44.3061, 58.3367, 31.4318, 47.8805, 74.9465, 0.0000, 0.0000, 0.0000, 0.0000, 0.0000, 0.0000, 0.0000, 0.0000, 0.0000, 0.0000, 2024-01-15 10:00:01.268, 1705312801.268
62, 55.1148, -15.0083, 57.0064, 21.0782, 41.2303, 9.3711, 31.3269, 65.5935, 0.0000, 0.0000, 0.0000, 0.0000, 0.0000, 0.0000, 0.0000, 0.0000, 0.0000, 0.0000, 2024-01-15 10:00:01.272, 1705312801.272
63, 54.6229, -28.9478, 48.3796, -4.4437, 35.6102, 14.7451, 22.5965, 65.4200, 0.0000, 0.0000, 0.0000, 0.0000, 0.0000, 0.0000, 0.0000, 0.0000, 0.0000, 0.0000, 2024-01-15 10:00:01.276, 1705312801.276
64, 48.6468, -40.1878, 45.7894, -14.7797, 58.7863, 38.6974, 35.3730, 81.0784, 0.0000, 0.0000, 0.0000, 0.0000, 0.0000, 0.0000, 0.0000, 0.0000, 0.0000, 0.0000, 2024-01-15 10:00:01.280, 1705312801.280
65, 36.7891, -50.8009, 48.4068, -6.8278, 77.1688, 37.2949, 61.2479, 102.2520, 0.0000, 0.0000, 0.0000, 0.0000, 0.0000, 0.0000, 0.0000, 0.0000, 0.0000, 0.0000, 2024-01-15 10:00:01.284, 1705312801.284
66, 34.5321, -50.3015, 57.2770, 8.7380, 71.6717, 19.2623, 80.5798, 111.0388, 0.0000, 0.0000, 0.0000, 0.0000, 0.0000, 0.0000, 0.0000, 0.0000, 0.0000, 0.0000, 2024-01-15 10:00:01.288, 1705312801.288
67, 41.4018, -45.8123, 62.5203, 14.7277, 65.4678, 17.0121, 83.5083, 101.2379, 0.0000, 0.0000, 0.0000, 0.0000, 0.0000, 0.0000, 0.0000, 0.0000, 0.0000, 0.0000, 2024-01-15 10:00:01.292, 1705312801.292
68, 43.5920, -50.0181, 54.0338, 10.2081, 71.6271, 23.3191, 72.7024, 81.4239, 0.0000, 0.0000, 0.0000, 0.0000, 0.0000, 0.0000, 0.0000, 0.0000, 0.0000, 0.0000, 2024-01-15 10:00:01.296, 1705312801.296
69, 50.0000, -45.0000, 52.0000, 16.0000, 80.0000, 27.0000, 58.0000, 65.0000, 0.0000, 0.0000, 0.0000, 0.0000, 0.0000, 0.0000, 0.0000, 0.0000, 0.0000, 0.0000, 2024-01-15 10:00:01.300, 1705312801.300
70, 65.5394, -22.6295, 69.9291, 34.4109, 80.0749, 35.8168, 49.9758, 61.2417, 0.0000, 0.0000, 0.0000, 0.0000, 0.0000, 0.0000, 0.0000, 0.0000, 0.0000, 0.0000, 2024-01-15 10:00:01.304, 1705312801.304
71, 65.4146, -13.9320, 78.1697, 38.5912, 69.4470, 42.4792, 51.8380, 69.7689, 0.0000, 0.0000, 0.0000, 0.0000, 0.0000, 0.0000, 0.0000, 0.0000, 0.0000, 0.0000, 2024-01-15 10:00:01.308, 1705312801.308
72, 40.6266, -32.1280, 61.5114, 20.7029, 59.4645, 36.1843, 59.0164, 81.6941, 0.0000, 0.0000, 0.0000, 0.0000, 0.0000, 0.0000, 0.0000, 0.0000, 0.0000, 0.0000, 2024-01-15 10:00:01.312, 1705312801.312
73, 17.8729, -48.1429, 48.5787, 3.8527, 60.2784, 30.3455, 66.3633, 90.4990, 0.0000, 0.0000, 0.0000, 0.0000, 0.0000, 0.0000, 0.0000, 0.0000, 0.0000, 0.0000, 2024-01-15 10:00:01.316, 1705312801.316
74, 17.0048, -40.0112, 53.9517, 3.9094, 61.5702, 35.0572, 71.0107, 96.6472, 0.0000, 0.0000, 0.0000, 0.0000, 0.0000, 0.0000, 0.0000, 0.0000, 0.0000, 0.0000, 2024-01-15 10:00:01.320, 1705312801.320
75, 29.2949, -19.1581, 64.0207, 18.3745, 55.6957, 36.6737, 70.2909, 97.5027, 0.0000, 0.0000, 0.0000, 0.0000, 0.0000, 0.0000, 0.0000, 0.0000, 0.0000, 0.0000, 2024-01-15 10:00:01.324, 1705312801.324
76, 35.1456, -10.1863, 69.2203, 34.6365, 49.9227, 26.4618, 62.5694, 86.6969, 0.0000, 0.0000, 0.0000, 0.0000, 0.0000, 0.0000, 0.0000, 0.0000, 0.0000, 0.0000, 2024-01-15 10:00:01.328, 1705312801.328
77, 28.2616, -20.7982, 62.6948, 34.1956, 45.0781, 18.6054, 50.7617, 68.7449, 0.0000, 0.0000, 0.0000, 0.0000, 0.0000, 0.0000, 0.0000, 0.0000, 0.0000, 0.0000, 2024-01-15 10:00:01.332, 1705312801.332
78, 23.5004, -31.2323, 48.0134, 17.8763, 43.7132, 26.4954, 40.7635, 57.2687, 0.0000, 0.0000, 0.0000, 0.0000, 0.0000, 0.0000, 0.0000, 0.0000, 0.0000, 0.0000, 2024-01-15 10:00:01.336, 1705312801.336
79, 29.9962, -26.3259, 46.2084, 11.3731, 51.7173, 39.8394, 33.9707, 56.6694, 0.0000, 0.0000, 0.0000, 0.0000, 0.0000, 0.0000, 0.0000, 0.0000, 0.0000, 0.0000, 2024-01-15 10:00:01.340, 1705312801.340
80, 36.2546, -16.4134, 55.4171, 24.0964, 51.3352, 42.9192, 27.6414, 61.3690, 0.0000, 0.0000, 0.0000, 0.0000, 0.0000, 0.0000, 0.0000, 0.0000, 0.0000, 0.0000, 2024-01-15 10:00:01.344, 1705312801.344
81, 43.5388, -3.5513, 55.9044, 41.9995, 35.5927, 43.7924, 25.9694, 68.8975, 0.0000, 0.0000, 0.0000, 0.0000, 0.0000, 0.0000, 0.0000, 0.0000, 0.0000, 0.0000, 2024-01-15 10:00:01.348, 1705312801.348
82, 66.0637, 22.1880, 60.7300, 60.6691, 39.1561, 57.3972, 37.7270, 79.6792, 0.0000, 0.0000, 0.0000, 0.0000, 0.0000, 0.0000, 0.0000, 0.0000, 0.0000, 0.0000, 2024-01-15 10:00:01.352, 1705312801.352
83, 85.7135, 41.7573, 82.6395, 79.1418, 63.9008, 72.5543, 57.8649, 89.5790, 0.0000, 0.0000, 0.0000, 0.0000, 0.0000, 0.0000, 0.0000, 0.0000, 0.0000, 0.0000, 2024-01-15 10:00:01.356, 1705312801.356
84, 74.2903, 30.1303, 92.8245, 84.6807, 63.2356, 69.6418, 69.7173, 91.5426, 0.0000, 0.0000, 0.0000, 0.0000, 0.0000, 0.0000, 0.0000, 0.0000, 0.0000, 0.0000, 2024-01-15 10:00:01.360, 1705312801.360
85, 50.0041, 5.7435, 80.2908, 75.7829, 41.9167, 53.7014, 68.4510, 82.3840, 0.0000, 0.0000, 0.0000, 0.0000, 0.0000, 0.0000, 0.0000, 0.0000, 0.0000, 0.0000, 2024-01-15 10:00:01.364, 1705312801.364
86, 42.8831, -3.7742, 73.5734, 64.8534, 42.6966, 41.3581, 62.2555, 66.8373, 0.0000, 0.0000, 0.0000, 0.0000, 0.0000, 0.0000, 0.0000, 0.0000, 0.0000, 0.0000, 2024-01-15 10:00:01.368, 1705312801.368
87, 40.8533, -3.7705, 76.0267, 54.9768, 50.4314, 37.1834, 55.3468, 54.4435, 0.0000, 0.0000, 0.0000, 0.0000, 0.0000, 0.0000, 0.0000, 0.0000, 0.0000, 0.0000, 2024-01-15 10:00:01.372, 1705312801.372
88, 26.8893, -1.9920, 67.8273, 48.1712, 39.6333, 40.6698, 50.2952, 51.0257, 0.0000, 0.0000, 0.0000, 0.0000, 0.0000, 0.0000, 0.0000, 0.0000, 0.0000, 0.0000, 2024-01-15 10:00:01.376, 1705312801.376
89, 16.3853, 8.5821, 56.9202, 54.4523, 39.0540, 51.0421, 53.4869, 55.6420, 0.0000, 0.0000, 0.0000, 0.0000, 0.0000, 0.0000, 0.0000, 0.0000, 0.0000, 0.0000, 2024-01-15 10:00:01.380, 1705312801.380
90, 16.3061, 18.9243, 57.3658, 68.5086, 55.3138, 55.4565, 60.6917, 62.9817, 0.0000, 0.0000, 0.0000, 0.0000, 0.0000, 0.0000, 0.0000, 0.0000, 0.0000, 0.0000, 2024-01-15 10:00:01.384, 1705312801.384
91, 4.3057, 5.7576, 53.3801, 66.1209, 48.1460, 40.2219, 56.5663, 64.6531, 0.0000, 0.0000, 0.0000, 0.0000, 0.0000, 0.0000, 0.0000, 0.0000, 0.0000, 0.0000, 2024-01-15 10:00:01.388, 1705312801.388
92, -21.8793, -27.7703, 26.4840, 36.5688, 18.2181, 21.7484, 39.4336, 57.0532, 0.0000, 0.0000, 0.0000, 0.0000, 0.0000, 0.0000, 0.0000, 0.0000, 0.0000, 0.0000, 2024-01-15 10:00:01.392, 1705312801.392
93, -33.6486, -46.8360, -8.8942, 2.8399, 5.5756, 33.1100, 25.7943, 49.8996, 0.0000, 0.0000, 0.0000, 0.0000, 0.0000, 0.0000, 0.0000, 0.0000, 0.0000, 0.0000, 2024-01-15 10:00:01.396, 1705312801.396
94, -35.0000, -34.0000, -19.0000, 1.0000, 16.0000, 68.0000, 26.0000, 53.0000, 0.0000, 0.0000, 0.0000, 0.0000, 0.0000, 0.0000, 0.0000, 0.0000, 0.0000, 0.0000, 2024-01-15 10:00:01.400, 1705312801.400
95, -62.8198, -21.1468, -0.3690, 31.9152, 25.3309, 79.0425, 31.6141, 58.1800, 0.0000, 0.0000, 0.0000, 0.0000, 0.0000, 0.0000, 0.0000, 0.0000, 0.0000, 0.0000, 2024-01-15 10:00:01.404, 1705312801.404
96, -97.1164, -42.7928, 7.3408, 47.1101, 16.3001, 47.4443, 26.9431, 50.8648, 0.0000, 0.0000, 0.0000, 0.0000, 0.0000, 0.0000, 0.0000, 0.0000, 0.0000, 0.0000, 2024-01-15 10:00:01.408, 1705312801.408
97, -71.1782, -78.8936, -17.0066, 11.8559, -9.7678, 10.5864, 7.0271, 32.3738, 0.0000, 0.0000, 0.0000, 0.0000, 0.0000, 0.0000, 0.0000, 0.0000, 0.0000, 0.0000, 2024-01-15 10:00:01.412, 1705312801.412
98, 2.2324, -87.0311, -41.5604, -38.8574, -23.8631, 8.0872, -14.3099, 17.8679, 0.0000, 0.0000, 0.0000, 0.0000, 0.0000, 0.0000, 0.0000, 0.0000, 0.0000, 0.0000, 2024-01-15 10:00:01.416, 1705312801.416
99, 37.6053, -66.1694, -38.0239, -47.8451, -2.0375, 36.0689, -19.5359, 19.3898, 0.0000, 0.0000, 0.0000, 0.0000, 0.0000, 0.0000, 0.0000, 0.0000, 0.0000, 0.0000, 2024-01-15 10:00:01.420, 1705312801.420
100, 19.5620, -47.0326, -18.0384, -15.7087, 26.5430, 57.7704, -11.0834, 34.1766, 0.0000, 0.0000, 0.0000, 0.0000, 0.0000, 0.0000, 0.0000, 0.0000, 0.0000, 0.0000, 2024-01-15 10:00:01.424, 1705312801.424
101, 8.0457, -45.0942, -0.9148, 8.7532, 21.9596, 44.1587, -6.9747, 44.2526, 0.0000, 0.0000, 0.0000, 0.0000, 0.0000, 0.0000, 0.0000, 0.0000, 0.0000, 0.0000, 2024-01-15 10:00:01.428, 1705312801.428
102, 19.3321, -51.0015, 3.6073, 0.5734, -2.1895, 8.4939, -15.2483, 33.1867, 0.0000, 0.0000, 0.0000, 0.0000, 0.0000, 0.0000, 0.0000, 0.0000, 0.0000, 0.0000, 2024-01-15 10:00:01.432, 1705312801.432
103, 21.1257, -53.4012, -6.2824, -19.6914, -13.7027, -11.5237, -28.0906, 5.1143, 0.0000, 0.0000, 0.0000, 0.0000, 0.0000, 0.0000, 0.0000, 0.0000, 0.0000, 0.0000, 2024-01-15 10:00:01.436, 1705312801.436
104, 8.4526, -57.3707, -15.6951, -29.7850, -12.9242, -8.5553, -36.3320, -21.6053, 0.0000, 0.0000, 0.0000, 0.0000, 0.0000, 0.0000, 0.0000, 0.0000, 0.0000, 0.0000, 2024-01-15 10:00:01.440, 1705312801.440
105, 2.0281, -71.0060, -12.6233, -32.1257, -13.1703, -7.3319, -37.9774, -35.4795, 0.0000, 0.0000, 0.0000, 0.0000, 0.0000, 0.0000, 0.0000, 0.0000, 0.0000, 0.0000, 2024-01-15 10:00:01.444, 1705312801.444
106, 9.0792, -82.7394, -11.8409, -36.3626, -20.0926, -18.4343, -38.1120, -38.7040, 0.0000, 0.0000, 0.0000, 0.0000, 0.0000, 0.0000, 0.0000, 0.0000, 0.0000, 0.0000, 2024-01-15 10:00:01.448, 1705312801.448
107, 20.1789, -79.8701, -27.9876, -47.8083, -35.2510, -29.5389, -43.5568, -39.6587, 0.0000, 0.0000, 0.0000, 0.0000, 0.0000, 0.0000, 0.0000, 0.0000, 0.0000, 0.0000, 2024-01-15 10:00:01.452, 1705312801.452
108, 23.1812, -70.5541, -48.1526, -64.1834, -45.0821, -26.7928, -51.6816, -41.9351, 0.0000, 0.0000, 0.0000, 0.0000, 0.0000, 0.0000, 0.0000, 0.0000, 0.0000, 0.0000, 2024-01-15 10:00:01.456, 1705312801.456
109, 17.3607, -61.5141, -51.6525, -66.7697, -32.5393, -7.6662, -50.3354, -38.5191, 0.0000, 0.0000, 0.0000, 0.0000, 0.0000, 0.0000, 0.0000, 0.0000, 0.0000, 0.0000, 2024-01-15 10:00:01.460, 1705312801.460
110, 10.6158, -51.4761, -37.6590, -44.8777, -13.0375, 9.4434, -35.1046, -22.8494, 0.0000, 0.0000, 0.0000, 0.0000, 0.0000, 0.0000, 0.0000, 0.0000, 0.0000, 0.0000, 2024-01-15 10:00:01.464, 1705312801.464
111, 4.1438, -48.5178, -23.5273, -22.8921, -12.3835, 6.0530, -16.0531, -2.3104, 0.0000, 0.0000, 0.0000, 0.0000, 0.0000, 0.0000, 0.0000, 0.0000, 0.0000, 0.0000, 2024-01-15 10:00:01.468, 1705312801.468
112, 0.7641, -50.1688, -18.3031, -19.5465, -18.9777, -1.1259, -2.4495, 11.6622, 0.0000, 0.0000, 0.0000, 0.0000, 0.0000, 0.0000, 0.0000, 0.0000, 0.0000, 0.0000, 2024-01-15 10:00:01.472, 1705312801.472
113, 7.4179, -40.4825, -11.6196, -17.5922, -10.5670, 8.4740, 7.4359, 18.1172, 0.0000, 0.0000, 0.0000, 0.0000, 0.0000, 0.0000, 0.0000, 0.0000, 0.0000, 0.0000, 2024-01-15 10:00:01.476, 1705312801.476
114, 15.2231, -29.8419, -0.4050, -9.3667, 1.7245, 15.4271, 17.8221, 19.1859, 0.0000, 0.0000, 0.0000, 0.0000, 0.0000, 0.0000, 0.0000, 0.0000, 0.0000, 0.0000, 2024-01-15 10:00:01.480, 1705312801.480
115, 16.6719, -35.4343, 3.4815, -8.7930, 1.2481, 1.7051, 26.6301, 12.3033, 0.0000, 0.0000, 0.0000, 0.0000, 0.0000, 0.0000, 0.0000, 0.0000, 0.0000, 0.0000, 2024-01-15 10:00:01.484, 1705312801.484
116, 23.2340, -40.9549, 0.6387, -12.1812, -4.6188, -11.6943, 28.8251, -0.6413, 0.0000, 0.0000, 0.0000, 0.0000, 0.0000, 0.0000, 0.0000, 0.0000, 0.0000, 0.0000, 2024-01-15 10:00:01.488, 1705312801.488
117, 29.1129, -35.7327, -1.8447, -12.0464, -8.6448, -5.3212, 23.6515, -9.9860, 0.0000, 0.0000, 0.0000, 0.0000, 0.0000, 0.0000, 0.0000, 0.0000, 0.0000, 0.0000, 2024-01-15 10:00:01.492, 1705312801.492
118, 17.6100, -33.8215, -8.5374, -15.5948, -15.3971, 11.8644, 14.6919, -9.7131, 0.0000, 0.0000, 0.0000, 0.0000, 0.0000, 0.0000, 0.0000, 0.0000, 0.0000, 0.0000, 2024-01-15 10:00:01.496, 1705312801.496
119, 8.0000, -32.0000, -17.0000, -16.0000, -27.0000, 20.0000, 3.0000, -5.0000, 0.0000, 0.0000, 0.0000, 0.0000, 0.0000, 0.0000, 0.0000, 0.0000, 0.0000, 0.0000, 2024-01-15 10:00:01.500, 1705312801.500
120, 17.7144, -23.4407, -21.9855, -7.3281, -43.3281, 4.3857, -14.5140, -7.1628, 0.0000, 0.0000, 0.0000, 0.0000, 0.0000, 0.0000, 0.0000, 0.0000, 0.0000, 0.0000, 2024-01-15 10:00:01.504, 1705312801.504
121, 23.2002, -21.6531, -32.7670, -9.1826, -58.8445, -23.9351, -37.1665, -21.6659, 0.0000, 0.0000, 0.0000, 0.0000, 0.0000, 0.0000, 0.0000, 0.0000, 0.0000, 0.0000, 2024-01-15 10:00:01.508, 1705312801.508
122, 14.2961, -25.6687, -42.1401, -22.6690, -61.6163, -36.0481, -57.9056, -40.9644, 0.0000, 0.0000, 0.0000, 0.0000, 0.0000, 0.0000, 0.0000, 0.0000, 0.0000, 0.0000, 2024-01-15 10:00:01.512, 1705312801.512
123, 4.9143, -29.9911, -32.8332, -28.9170, -54.8034, -32.3492, -70.1253, -51.1303, 0.0000, 0.0000, 0.0000, 0.0000, 0.0000, 0.0000, 0.0000, 0.0000, 0.0000, 0.0000, 2024-01-15 10:00:01.516, 1705312801.516
124, -7.2381, -48.2895, -26.3651, -36.4274, -47.1332, -30.7182, -68.8089, -43.7897, 0.0000, 0.0000, 0.0000, 0.0000, 0.0000, 0.0000, 0.0000, 0.0000, 0.0000, 0.0000, 2024-01-15 10:00:01.520, 1705312801.520
125, -12.7437, -64.1370, -38.1074, -45.8569, -29.1180, -24.6465, -50.5699, -23.2860, 0.0000, 0.0000, 0.0000, 0.0000, 0.0000, 0.0000, 0.0000, 0.0000, 0.0000, 0.0000, 2024-01-15 10:00:01.524, 1705312801.524
126, 6.8785, -47.4383, -34.3220, -32.0588, -9.2729, -18.0658, -23.8060, -7.0445, 0.0000, 0.0000, 0.0000, 0.0000, 0.0000, 0.0000, 0.0000, 0.0000, 0.0000, 0.0000, 2024-01-15 10:00:01.528, 1705312801.528
127, 22.6387, -28.6937, -14.2559, -16.5229, -19.3440, -34.8014, -5.7394, -10.0087, 0.0000, 0.0000, 0.0000, 0.0000, 0.0000, 0.0000, 0.0000, 0.0000, 0.0000, 0.0000, 2024-01-15 10:00:01.532, 1705312801.532
128, 10.8358, -37.7562, -21.0611, -38.7839, -41.3762, -55.3982, 0.4218, -24.6627, 0.0000, 0.0000, 0.0000, 0.0000, 0.0000, 0.0000, 0.0000, 0.0000, 0.0000, 0.0000, 2024-01-15 10:00:01.536, 1705312801.536
129, 4.8027, -42.7349, -41.4664, -67.1875, -32.1896, -50.0595, 5.3465, -32.3842, 0.0000, 0.0000, 0.0000, 0.0000, 0.0000, 0.0000, 0.0000, 0.0000, 0.0000, 0.0000, 2024-01-15 10:00:01.540, 1705312801.540
130, 8.7878, -40.4607, -38.3702, -67.7100, -18.0427, -51.0792, 8.9955, -30.8275, 0.0000, 0.0000, 0.0000, 0.0000, 0.0000, 0.0000, 0.0000, 0.0000, 0.0000, 0.0000, 2024-01-15 10:00:01.544, 1705312801.544
131, -7.3143, -64.4371, -37.8931, -74.4364, -35.7297, -80.7509, 2.9675, -29.8138, 0.0000, 0.0000, 0.0000, 0.0000, 0.0000, 0.0000, 0.0000, 0.0000, 0.0000, 0.0000, 2024-01-15 10:00:01.548, 1705312801.548
132, -16.3580, -88.4382, -61.0299, -100.0042, -48.5205, -95.9080, -9.1150, -33.3267, 0.0000, 0.0000, 0.0000, 0.0000, 0.0000, 0.0000, 0.0000, 0.0000, 0.0000, 0.0000, 2024-01-15 10:00:01.552, 1705312801.552
133, 4.7065, -79.9658, -75.8029, -108.3537, -34.8777, -80.2224, -18.5481, -41.3860, 0.0000, 0.0000, 0.0000, 0.0000, 0.0000, 0.0000, 0.0000, 0.0000, 0.0000, 0.0000, 2024-01-15 10:00:01.556, 1705312801.556
134, 7.2884, -73.3432, -76.0037, -99.2073, -30.5500, -65.4961, -23.9204, -49.6549, 0.0000, 0.0000, 0.0000, 0.0000, 0.0000, 0.0000, 0.0000, 0.0000, 0.0000, 0.0000, 2024-01-15 10:00:01.560, 1705312801.560
135, -16.1981, -81.8074, -81.6290, -95.1417, -28.4269, -50.9610, -21.9066, -44.9486, 0.0000, 0.0000, 0.0000, 0.0000, 0.0000, 0.0000, 0.0000, 0.0000, 0.0000, 0.0000, 2024-01-15 10:00:01.564, 1705312801.564
136, -10.9732, -73.6098, -79.0210, -88.4673, 4.8589, -21.8137, -7.0367, -22.3342, 0.0000, 0.0000, 0.0000, 0.0000, 0.0000, 0.0000, 0.0000, 0.0000, 0.0000, 0.0000, 2024-01-15 10:00:01.568, 1705312801.568
137, 14.9556, -55.7782, -56.7645, -72.8631, 40.7499, 3.9152, 16.4215, 6.0334, 0.0000, 0.0000, 0.0000, 0.0000, 0.0000, 0.0000, 0.0000, 0.0000, 0.0000, 0.0000, 2024-01-15 10:00:01.572, 1705312801.572
138, 17.2104, -48.8726, -34.2718, -55.4840, 51.2491, 18.2127, 39.2421, 30.7447, 0.0000, 0.0000, 0.0000, 0.0000, 0.0000, 0.0000, 0.0000, 0.0000, 0.0000, 0.0000, 2024-01-15 10:00:01.576, 1705312801.576
139, 10.4793, -42.0017, -19.7704, -35.0917, 59.1546, 30.1852, 53.7371, 49.4775, 0.0000, 0.0000, 0.0000, 0.0000, 0.0000, 0.0000, 0.0000, 0.0000, 0.0000, 0.0000, 2024-01-15 10:00:01.580, 1705312801.580
140, 14.1970, -41.5518, -9.4714, -20.5037, 61.0582, 28.8450, 50.2445, 54.7827, 0.0000, 0.0000, 0.0000, 0.0000, 0.0000, 0.0000, 0.0000, 0.0000, 0.0000, 0.0000, 2024-01-15 10:00:01.584, 1705312801.584
141, 10.7875, -60.9623, -8.5631, -24.2716, 31.9623, 10.3644, 26.2018, 42.7020, 0.0000, 0.0000, 0.0000, 0.0000, 0.0000, 0.0000, 0.0000, 0.0000, 0.0000, 0.0000, 2024-01-15 10:00:01.588, 1705312801.588
142, -2.9835, -79.3972, -20.2496, -36.6756, -7.8599, -8.7832, -6.3604, 18.2120, 0.0000, 0.0000, 0.0000, 0.0000, 0.0000, 0.0000, 0.0000, 0.0000, 0.0000, 0.0000, 2024-01-15 10:00:01.592, 1705312801.592
143, -20.3916, -90.5478, -47.2637, -53.7496, -34.3216, -29.5363, -36.1265, -17.6870, 0.0000, 0.0000, 0.0000, 0.0000, 0.0000, 0.0000, 0.0000, 0.0000, 0.0000, 0.0000, 2024-01-15 10:00:01.596, 1705312801.596
144, -41.0000, -110.0000, -82.0000, -79.0000, -53.0000, -53.0000, -60.0000, -61.0000, 0.0000, 0.0000, 0.0000, 0.0000, 0.0000, 0.0000, 0.0000, 0.0000, 0.0000, 0.0000, 2024-01-15 10:00:01.600, 1705312801.600
145, -45.1330, -121.9258, -91.0505, -89.7789, -55.6117, -59.2393, -73.8768, -93.5972, 0.0000, 0.0000, 0.0000, 0.0000, 0.0000, 0.0000, 0.0000, 0.0000, 0.0000, 0.0000, 2024-01-15 10:00:01.604, 1705312801.604
146, -27.3356, -114.9774, -69.1086, -77.5756, -35.7802, -52.2138, -75.1286, -104.0379, 0.0000, 0.0000, 0.0000, 0.0000, 0.0000, 0.0000, 0.0000, 0.0000, 0.0000, 0.0000, 2024-01-15 10:00:01.608, 1705312801.608
147, -21.7134, -115.5777, -62.2779, -75.4932, -18.8778, -58.1822, -66.6458, -99.2533, 0.0000, 0.0000, 0.0000, 0.0000, 0.0000, 0.0000, 0.0000, 0.0000, 0.0000, 0.0000, 2024-01-15 10:00:01.612, 1705312801.612
148, -39.0353, -130.1209, -84.1689, -92.1118, -16.9074, -71.7748, -49.8909, -85.4011, 0.0000, 0.0000, 0.0000, 0.0000, 0.0000, 0.0000, 0.0000, 0.0000, 0.0000, 0.0000, 2024-01-15 10:00:01.616, 1705312801.616
149, -56.8492, -140.2905, -97.5828, -101.0237, -16.4631, -70.6192, -28.2429, -63.6467, 0.0000, 0.0000, 0.0000, 0.0000, 0.0000, 0.0000, 0.0000, 0.0000, 0.0000, 0.0000, 2024-01-15 10:00:01.620, 1705312801.620
150, -70.8415, -144.7757, -91.0160, -97.7317, -12.6664, -56.0695, -10.4305, -40.8873, 0.0000, 0.0000, 0.0000, 0.0000, 0.0000, 0.0000, 0.0000, 0.0000, 0.0000, 0.0000, 2024-01-15 10:00:01.624, 1705312801.624
151, -78.8112, -140.3682, -76.3730, -87.2847, -2.5516, -41.5785, 2.3280, -23.9552, 0.0000, 0.0000, 0.0000, 0.0000, 0.0000, 0.0000, 0.0000, 0.0000, 0.0000, 0.0000, 2024-01-15 10:00:01.628, 1705312801.628
152, -67.6400, -122.3324, -51.8379, -65.4857, 13.8168, -35.7092, 15.5276, -13.4644, 0.0000, 0.0000, 0.0000, 0.0000, 0.0000, 0.0000, 0.0000, 0.0000, 0.0000, 0.0000, 2024-01-15 10:00:01.632, 1705312801.632
153, -52.1467, -111.8094, -30.7906, -49.3630, 18.7840, -37.2614, 26.6347, -7.6945, 0.0000, 0.0000, 0.0000, 0.0000, 0.0000, 0.0000, 0.0000, 0.0000, 0.0000, 0.0000, 2024-01-15 10:00:01.636, 1705312801.636
154, -55.5342, -117.8281, -33.1548, -52.9097, 9.3134, -32.7952, 30.6564, -2.8599, 0.0000, 0.0000, 0.0000, 0.0000, 0.0000, 0.0000, 0.0000, 0.0000, 0.0000, 0.0000, 2024-01-15 10:00:01.640, 1705312801.640
155, -68.7325, -120.9216, -42.2532, -54.6776, 2.7910, -19.1458, 28.7190, 2.2256, 0.0000, 0.0000, 0.0000, 0.0000, 0.0000, 0.0000, 0.0000, 0.0000, 0.0000, 0.0000, 2024-01-15 10:00:01.644, 1705312801.644
156, -75.6019, -118.9412, -41.1627, -46.4099, -0.6155, -10.7960, 20.5233, 1.6032, 0.0000, 0.0000, 0.0000, 0.0000, 0.0000, 0.0000, 0.0000, 0.0000, 0.0000, 0.0000, 2024-01-15 10:00:01.648, 1705312801.648
157, -71.3448, -119.1105, -43.4282, -47.4595, -4.5158, -13.8267, 6.9405, -7.1775, 0.0000, 0.0000, 0.0000, 0.0000, 0.0000, 0.0000, 0.0000, 0.0000, 0.0000, 0.0000, 2024-01-15 10:00:01.652, 1705312801.652
158, -59.5305, -118.7812, -51.5943, -59.1366, -3.0759, -29.4606, -4.4695, -20.0934, 0.0000, 0.0000, 0.0000, 0.0000, 0.0000, 0.0000, 0.0000, 0.0000, 0.0000, 0.0000, 2024-01-15 10:00:01.656, 1705312801.656
159, -61.9930, -132.9416, -56.1552, -76.4107, -8.1126, -59.4792, -11.6494, -36.0635, 0.0000, 0.0000, 0.0000, 0.0000, 0.0000, 0.0000, 0.0000, 0.0000, 0.0000, 0.0000, 2024-01-15 10:00:01.660, 1705312801.660
160, -80.2716, -162.3835, -63.4765, -103.9934, -20.9216, -78.1739, -18.5196, -50.4667, 0.0000, 0.0000, 0.0000, 0.0000, 0.0000, 0.0000, 0.0000, 0.0000, 0.0000, 0.0000, 2024-01-15 10:00:01.664, 1705312801.664
161, -70.0594, -162.9485, -70.2991, -120.7327, -13.0220, -61.2771, -22.0387, -52.2693, 0.0000, 0.0000, 0.0000, 0.0000, 0.0000, 0.0000, 0.0000, 0.0000, 0.0000, 0.0000, 2024-01-15 10:00:01.668, 1705312801.668
162, -26.6112, -131.2494, -62.0077, -103.5613, 4.6751, -39.9233, -20.8265, -42.8785, 0.0000, 0.0000, 0.0000, 0.0000, 0.0000, 0.0000, 0.0000, 0.0000, 0.0000, 0.0000, 2024-01-15 10:00:01.672, 1705312801.672
163, -13.2804, -126.5297, -51.8036, -80.0548, -10.0291, -46.6230, -23.3967, -34.2215, 0.0000, 0.0000, 0.0000, 0.0000, 0.0000, 0.0000, 0.0000, 0.0000, 0.0000, 0.0000, 2024-01-15 10:00:01.676, 1705312801.676
164, -49.5066, -157.9595, -59.2913, -82.5177, -38.5479, -55.7172, -32.6842, -27.9388, 0.0000, 0.0000, 0.0000, 0.0000, 0.0000, 0.0000, 0.0000, 0.0000, 0.0000, 0.0000, 2024-01-15 10:00:01.680, 1705312801.680
165, -84.1938, -176.9152, -73.1114, -95.5066, -38.1036, -44.7188, -42.7918, -23.0737, 0.0000, 0.0000, 0.0000, 0.0000, 0.0000, 0.0000, 0.0000, 0.0000, 0.0000, 0.0000, 2024-01-15 10:00:01.684, 1705312801.684
166, -90.7321, -174.4579, -78.1766, -95.1163, -26.3272, -34.4736, -50.8502, -27.1232, 0.0000, 0.0000, 0.0000, 0.0000, 0.0000, 0.0000, 0.0000, 0.0000, 0.0000, 0.0000, 2024-01-15 10:00:01.688, 1705312801.688
167, -86.3108, -174.9824, -78.3503, -85.0018, -33.0467, -34.7164, -54.2543, -38.1134, 0.0000, 0.0000, 0.0000, 0.0000, 0.0000, 0.0000, 0.0000, 0.0000, 0.0000, 0.0000, 2024-01-15 10:00:01.692, 1705312801.692
168, -89.6807, -183.3478, -81.5829, -82.6673, -48.7463, -29.8927, -48.5927, -40.1974, 0.0000, 0.0000, 0.0000, 0.0000, 0.0000, 0.0000, 0.0000, 0.0000, 0.0000, 0.0000, 2024-01-15 10:00:01.696, 1705312801.696
169, -109.0000, -194.0000, -93.0000, -98.0000, -58.0000, -15.0000, -34.0000, -25.0000, 0.0000, 0.0000, 0.0000, 0.0000, 0.0000, 0.0000, 0.0000, 0.0000, 0.0000, 0.0000, 2024-01-15 10:00:01.700, 1705312801.700
170, -124.4385, -194.0226, -105.8700, -112.0581, -51.3163, 2.1635, -11.2801, 1.0386, 0.0000, 0.0000, 0.0000, 0.0000, 0.0000, 0.0000, 0.0000, 0.0000, 0.0000, 0.0000, 2024-01-15 10:00:01.704, 1705312801.704
171, -108.3565, -173.4448, -104.3097, -99.2288, -31.0503, 8.3292, 15.1199, 22.9296, 0.0000, 0.0000, 0.0000, 0.0000, 0.0000, 0.0000, 0.0000, 0.0000, 0.0000, 0.0000, 2024-01-15 10:00:01.708, 1705312801.708
172, -89.7018, -163.4122, -99.3257, -83.6615, -28.1012, -5.5361, 28.0762, 26.0358, 0.0000, 0.0000, 0.0000, 0.0000, 0.0000, 0.0000, 0.0000, 0.0000, 0.0000, 0.0000, 2024-01-15 10:00:01.712, 1705312801.712
173, -110.2258, -191.0162, -114.1605, -102.7558, -48.1408, -19.6342, 19.1791, 13.9713, 0.0000, 0.0000, 0.0000, 0.0000, 0.0000, 0.0000, 0.0000, 0.0000, 0.0000, 0.0000, 2024-01-15 10:00:01.716, 1705312801.716
174, -135.2529, -213.7461, -124.8329, -125.6492, -45.4447, -9.2469, 7.7001, 7.7518, 0.0000, 0.0000, 0.0000, 0.0000, 0.0000, 0.0000, 0.0000, 0.0000, 0.0000, 0.0000, 2024-01-15 10:00:01.720, 1705312801.720
175, -119.7416, -192.6749, -95.5951, -105.8397, -9.7166, 9.7466, 11.2916, 16.5680, 0.0000, 0.0000, 0.0000, 0.0000, 0.0000, 0.0000, 0.0000, 0.0000, 0.0000, 0.0000, 2024-01-15 10:00:01.724, 1705312801.724
176, -93.1638, -164.5060, -53.1400, -69.7710, 14.3615, 10.2951, 22.5368, 29.6575, 0.0000, 0.0000, 0.0000, 0.0000, 0.0000, 0.0000, 0.0000, 0.0000, 0.0000, 0.0000, 2024-01-15 10:00:01.728, 1705312801.728
177, -86.6622, -161.5187, -38.2897, -61.8664, 14.3378, -2.5406, 29.9625, 36.6633, 0.0000, 0.0000, 0.0000, 0.0000, 0.0000, 0.0000, 0.0000, 0.0000, 0.0000, 0.0000, 2024-01-15 10:00:01.732, 1705312801.732
178, -78.8968, -156.4882, -35.9431, -72.3415, 14.3926, -12.1000, 32.2847, 34.8212, 0.0000, 0.0000, 0.0000, 0.0000, 0.0000, 0.0000, 0.0000, 0.0000, 0.0000, 0.0000, 2024-01-15 10:00:01.736, 1705312801.736
179, -58.1496, -132.6822, -21.5985, -75.1037, 18.5460, -10.1328, 30.3242, 25.8960, 0.0000, 0.0000, 0.0000, 0.0000, 0.0000, 0.0000, 0.0000, 0.0000, 0.0000, 0.0000, 2024-01-15 10:00:01.740, 1705312801.740
180, -36.6830, -109.8421, -5.1753, -62.7576, 20.0172, 4.0081, 26.8345, 17.6610, 0.0000, 0.0000, 0.0000, 0.0000, 0.0000, 0.0000, 0.0000, 0.0000, 0.0000, 0.0000, 2024-01-15 10:00:01.744, 1705312801.744
181, -13.4191, -91.9405, 5.7350, -36.4855, 18.8825, 14.2191, 26.1052, 15.6078, 0.0000, 0.0000, 0.0000, 0.0000, 0.0000, 0.0000, 0.0000, 0.0000, 0.0000, 0.0000, 2024-01-15 10:00:01.748, 1705312801.748
182, 9.3665, -69.3152, 15.9455, -13.9900, 15.1736, 9.4579, 28.7252, 16.7168, 0.0000, 0.0000, 0.0000, 0.0000, 0.0000, 0.0000, 0.0000, 0.0000, 0.0000, 0.0000, 2024-01-15 10:00:01.752, 1705312801.752
183, 17.9508, -55.1368, 20.9152, -15.2826, 20.9508, 10.2682, 36.2920, 20.5610, 0.0000, 0.0000, 0.0000, 0.0000, 0.0000, 0.0000, 0.0000, 0.0000, 0.0000, 0.0000, 2024-01-15 10:00:01.756, 1705312801.756
184, 16.9721, -62.3288, 23.5737, -25.8039, 45.1121, 27.9093, 49.9026, 30.7805, 0.0000, 0.0000, 0.0000, 0.0000, 0.0000, 0.0000, 0.0000, 0.0000, 0.0000, 0.0000, 2024-01-15 10:00:01.760, 1705312801.760
185, 19.8022, -69.3966, 38.0856, -21.1919, 65.1317, 38.8432, 61.3090, 43.5430, 0.0000, 0.0000, 0.0000, 0.0000, 0.0000, 0.0000, 0.0000, 0.0000, 0.0000, 0.0000, 2024-01-15 10:00:01.764, 1705312801.764
186, 27.9782, -51.4022, 58.2890, -6.4965, 64.3290, 34.1652, 63.3851, 52.0058, 0.0000, 0.0000, 0.0000, 0.0000, 0.0000, 0.0000, 0.0000, 0.0000, 0.0000, 0.0000, 2024-01-15 10:00:01.768, 1705312801.768
187, 39.5993, -26.6747, 65.9813, 3.2473, 58.6361, 30.6103, 60.4946, 55.7736, 0.0000, 0.0000, 0.0000, 0.0000, 0.0000, 0.0000, 0.0000, 0.0000, 0.0000, 0.0000, 2024-01-15 10:00:01.772, 1705312801.772
188, 44.8028, -31.4719, 61.2308, 1.1598, 58.2856, 31.3748, 57.2206, 57.4599, 0.0000, 0.0000, 0.0000, 0.0000, 0.0000, 0.0000, 0.0000, 0.0000, 0.0000, 0.0000, 2024-01-15 10:00:01.776, 1705312801.776
189, 34.0648, -54.2294, 53.7640, -11.3200, 64.6281, 39.7318, 56.9091, 63.9794, 0.0000, 0.0000, 0.0000, 0.0000, 0.0000, 0.0000, 0.0000, 0.0000, 0.0000, 0.0000, 2024-01-15 10:00:01.780, 1705312801.780
190, 27.3406, -48.3738, 51.1507, -9.7469, 88.8383, 72.3103, 69.6545, 86.8368, 0.0000, 0.0000, 0.0000, 0.0000, 0.0000, 0.0000, 0.0000, 0.0000, 0.0000, 0.0000, 2024-01-15 10:00:01.784, 1705312801.784
191, 42.5866, -13.7014, 62.2356, 26.9650, 118.8193, 112.9057, 97.9775, 123.7187, 0.0000, 0.0000, 0.0000, 0.0000, 0.0000, 0.0000, 0.0000, 0.0000, 0.0000, 0.0000, 2024-01-15 10:00:01.788, 1705312801.788
192, 57.9735, 3.6387, 83.8172, 69.3873, 124.0049, 120.3367, 127.3896, 153.5952, 0.0000, 0.0000, 0.0000, 0.0000, 0.0000, 0.0000, 0.0000, 0.0000, 0.0000, 0.0000, 2024-01-15 10:00:01.792, 1705312801.792
193, 61.5952, -6.1572, 98.7263, 78.4426, 112.2051, 97.9556, 145.7921, 161.9056, 0.0000, 0.0000, 0.0000, 0.0000, 0.0000, 0.0000, 0.0000, 0.0000, 0.0000, 0.0000, 2024-01-15 10:00:01.796, 1705312801.796
194, 73.0000, -12.0000, 101.0000, 65.0000, 108.0000, 80.0000, 152.0000, 151.0000, 0.0000, 0.0000, 0.0000, 0.0000, 0.0000, 0.0000, 0.0000, 0.0000, 0.0000, 0.0000, 2024-01-15 10:00:01.800, 1705312801.800
195, 84.3018, -9.1262, 96.0434, 53.2727, 104.6642, 68.4761, 145.7712, 126.2122, 0.0000, 0.0000, 0.0000, 0.0000, 0.0000, 0.0000, 0.0000, 0.0000, 0.0000, 0.0000, 2024-01-15 10:00:01.804, 1705312801.804
196, 71.8291, -14.8110, 83.6252, 41.3486, 100.0412, 53.7656, 131.4000, 96.3065, 0.0000, 0.0000, 0.0000, 0.0000, 0.0000, 0.0000, 0.0000, 0.0000, 0.0000, 0.0000, 2024-01-15 10:00:01.808, 1705312801.808
197, 56.3381, -22.7073, 69.8899, 30.5873, 110.0932, 50.9874, 119.1884, 77.9367, 0.0000, 0.0000, 0.0000, 0.0000, 0.0000, 0.0000, 0.0000, 0.0000, 0.0000, 0.0000, 2024-01-15 10:00:01.812, 1705312801.812
198, 63.4641, -21.0161, 71.4352, 31.5985, 118.1683, 61.2941, 109.2998, 76.9521, 0.0000, 0.0000, 0.0000, 0.0000, 0.0000, 0.0000, 0.0000, 0.0000, 0.0000, 0.0000, 2024-01-15 10:00:01.816, 1705312801.816
199, 71.5367, -21.4806, 82.8623, 35.0262, 98.3317, 59.1455, 93.0506, 81.0124, 0.0000, 0.0000, 0.0000, 0.0000, 0.0000, 0.0000, 0.0000, 0.0000, 0.0000, 0.0000, 2024-01-15 10:00:01.820, 1705312801.820
200, 59.4269, -35.4083, 75.1527, 24.4339, 76.6143, 47.0119, 73.0819, 82.5210, 0.0000, 0.0000, 0.0000, 0.0000, 0.0000, 0.0000, 0.0000, 0.0000, 0.0000, 0.0000, 2024-01-15 10:00:01.824, 1705312801.824
201, 46.6653, -50.8471, 48.3841, 8.4643, 86.4779, 51.0334, 61.1223, 85.6624, 0.0000, 0.0000, 0.0000, 0.0000, 0.0000, 0.0000, 0.0000, 0.0000, 0.0000, 0.0000, 2024-01-15 10:00:01.828, 1705312801.828
202, 58.2328, -47.4669, 43.1644, 10.1580, 104.9864, 62.1610, 58.9991, 89.4733, 0.0000, 0.0000, 0.0000, 0.0000, 0.0000, 0.0000, 0.0000, 0.0000, 0.0000, 0.0000, 2024-01-15 10:00:01.832, 1705312801.832
203, 87.3493, -25.0270, 70.9390, 28.1903, 96.3606, 57.4970, 58.6904, 89.4861, 0.0000, 0.0000, 0.0000, 0.0000, 0.0000, 0.0000, 0.0000, 0.0000, 0.0000, 0.0000, 2024-01-15 10:00:01.836, 1705312801.836
204, 100.8105, -10.4473, 87.0985, 32.8508, 71.5729, 52.3208, 56.6529, 88.5087, 0.0000, 0.0000, 0.0000, 0.0000, 0.0000, 0.0000, 0.0000, 0.0000, 0.0000, 0.0000, 2024-01-15 10:00:01.840, 1705312801.840
205, 84.5773, -17.7003, 71.7668, 16.9819, 64.3786, 61.6902, 57.2025, 86.7374, 0.0000, 0.0000, 0.0000, 0.0000, 0.0000, 0.0000, 0.0000, 0.0000, 0.0000, 0.0000, 2024-01-15 10:00:01.844, 1705312801.844
206, 69.2779, -20.3002, 63.3144, 13.2453, 79.5914, 65.6263, 63.2248, 78.2384, 0.0000, 0.0000, 0.0000, 0.0000, 0.0000, 0.0000, 0.0000, 0.0000, 0.0000, 0.0000, 2024-01-15 10:00:01.848, 1705312801.848
207, 73.2803, -3.0721, 73.1750, 30.6728, 88.9126, 61.5460, 69.9333, 66.2701, 0.0000, 0.0000, 0.0000, 0.0000, 0.0000, 0.0000, 0.0000, 0.0000, 0.0000, 0.0000, 2024-01-15 10:00:01.852, 1705312801.852
208, 69.8941, 6.2375, 66.2833, 39.1137, 72.6360, 71.9352, 70.2662, 60.1518, 0.0000, 0.0000, 0.0000, 0.0000, 0.0000, 0.0000, 0.0000, 0.0000, 0.0000, 0.0000, 2024-01-15 10:00:01.856, 1705312801.856
209, 52.9478, -5.4382, 43.9623, 34.4640, 47.3964, 82.8124, 62.4688, 58.8244, 0.0000, 0.0000, 0.0000, 0.0000, 0.0000, 0.0000, 0.0000, 0.0000, 0.0000, 0.0000, 2024-01-15 10:00:01.860, 1705312801.860
210, 45.7205, -20.1312, 33.6572, 32.1330, 37.7235, 67.9057, 50.4011, 57.7089, 0.0000, 0.0000, 0.0000, 0.0000, 0.0000, 0.0000, 0.0000, 0.0000, 0.0000, 0.0000, 2024-01-15 10:00:01.864, 1705312801.864
211, 38.1225, -34.3496, 24.6565, 21.2863, 43.2355, 53.3739, 42.2555, 61.2669, 0.0000, 0.0000, 0.0000, 0.0000, 0.0000, 0.0000, 0.0000, 0.0000, 0.0000, 0.0000, 2024-01-15 10:00:01.868, 1705312801.868
212, 20.7110, -42.1685, 14.2498, 8.6007, 53.5275, 67.5198, 47.1109, 74.3963, 0.0000, 0.0000, 0.0000, 0.0000, 0.0000, 0.0000, 0.0000, 0.0000, 0.0000, 0.0000, 2024-01-15 10:00:01.872, 1705312801.872
213, 23.5593, -22.7939, 30.8924, 24.6016, 62.7247, 80.9419, 63.4845, 92.3836, 0.0000, 0.0000, 0.0000, 0.0000, 0.0000, 0.0000, 0.0000, 0.0000, 0.0000, 0.0000, 2024-01-15 10:00:01.876, 1705312801.876
214, 40.3358, 0.6959, 55.0947, 45.0296, 61.7148, 68.1008, 77.1843, 104.1951, 0.0000, 0.0000, 0.0000, 0.0000, 0.0000, 0.0000, 0.0000, 0.0000, 0.0000, 0.0000, 2024-01-15 10:00:01.880, 1705312801.880
215, 32.4285, -10.9828, 45.9864, 29.2334, 53.3127, 52.8292, 78.8602, 101.2517, 0.0000, 0.0000, 0.0000, 0.0000, 0.0000, 0.0000, 0.0000, 0.0000, 0.0000, 0.0000, 2024-01-15 10:00:01.884, 1705312801.884
216, 23.6857, -28.6004, 33.0404, 7.7369, 58.8617, 52.3697, 73.1700, 87.0532, 0.0000, 0.0000, 0.0000, 0.0000, 0.0000, 0.0000, 0.0000, 0.0000, 0.0000, 0.0000, 2024-01-15 10:00:01.888, 1705312801.888
217, 46.8502, -15.7696, 50.0515, 10.8824, 77.9180, 53.2586, 66.7033, 74.3748, 0.0000, 0.0000, 0.0000, 0.0000, 0.0000, 0.0000, 0.0000, 0.0000, 0.0000, 0.0000, 2024-01-15 10:00:01.892, 1705312801.892
218, 63.5946, -4.8890, 63.7038, 11.1581, 82.6860, 50.2034, 60.5852, 67.6935, 0.0000, 0.0000, 0.0000, 0.0000, 0.0000, 0.0000, 0.0000, 0.0000, 0.0000, 0.0000, 2024-01-15 10:00:01.896, 1705312801.896
219, 55.0000, -15.0000, 58.0000, 7.0000, 71.0000, 49.0000, 55.0000, 61.0000, 0.0000, 0.0000, 0.0000, 0.0000, 0.0000, 0.0000, 0.0000, 0.0000, 0.0000, 0.0000, 2024-01-15 10:00:01.900, 1705312801.900
220, 59.7645, -13.4830, 62.2140, 25.4237, 69.9352, 48.2984, 50.3145, 53.9141, 0.0000, 0.0000, 0.0000, 0.0000, 0.0000, 0.0000, 0.0000, 0.0000, 0.0000, 0.0000, 2024-01-15 10:00:01.904, 1705312801.904
221, 75.6544, 0.7172, 74.9631, 47.8778, 82.9709, 48.2387, 46.3649, 51.8286, 0.0000, 0.0000, 0.0000, 0.0000, 0.0000, 0.0000, 0.0000, 0.0000, 0.0000, 0.0000, 2024-01-15 10:00:01.908, 1705312801.908
222, 71.5048, 2.4882, 78.8192, 52.1130, 83.8010, 47.6462, 42.5995, 52.9878, 0.0000, 0.0000, 0.0000, 0.0000, 0.0000, 0.0000, 0.0000, 0.0000, 0.0000, 0.0000, 2024-01-15 10:00:01.912, 1705312801.912
223, 63.9331, 0.8305, 81.3653, 51.2167, 58.9575, 36.6585, 35.6872, 50.8953, 0.0000, 0.0000, 0.0000, 0.0000, 0.0000, 0.0000, 0.0000, 0.0000, 0.0000, 0.0000, 2024-01-15 10:00:01.916, 1705312801.916
224, 70.8465, 5.4405, 78.3535, 42.5378, 27.3858, 21.0523, 24.2443, 45.1006, 0.0000, 0.0000, 0.0000, 0.0000, 0.0000, 0.0000, 0.0000, 0.0000, 0.0000, 0.0000, 2024-01-15 10:00:01.920, 1705312801.920
225, 73.9294, 5.5600, 60.5510, 23.7739, 17.8434, 21.9536, 15.6957, 41.7355, 0.0000, 0.0000, 0.0000, 0.0000, 0.0000, 0.0000, 0.0000, 0.0000, 0.0000, 0.0000, 2024-01-15 10:00:01.924, 1705312801.924
226, 70.2361, 5.0551, 48.9662, 23.3767, 32.5975, 34.5653, 16.3195, 45.6386, 0.0000, 0.0000, 0.0000, 0.0000, 0.0000, 0.0000, 0.0000, 0.0000, 0.0000, 0.0000, 2024-01-15 10:00:01.928, 1705312801.928
227, 76.3262, 8.5705, 54.8101, 38.1747, 48.1119, 36.1974, 22.2604, 53.3166, 0.0000, 0.0000, 0.0000, 0.0000, 0.0000, 0.0000, 0.0000, 0.0000, 0.0000, 0.0000, 2024-01-15 10:00:01.932, 1705312801.932
228, 97.8277, 9.7663, 65.7506, 37.7226, 54.5488, 30.2221, 29.8600, 56.1938, 0.0000, 0.0000, 0.0000, 0.0000, 0.0000, 0.0000, 0.0000, 0.0000, 0.0000, 0.0000, 2024-01-15 10:00:01.936, 1705312801.936
229, 127.3181, 16.2758, 81.6642, 33.6178, 56.5486, 26.8390, 37.2150, 50.2463, 0.0000, 0.0000, 0.0000, 0.0000, 0.0000, 0.0000, 0.0000, 0.0000, 0.0000, 0.0000, 2024-01-15 10:00:01.940, 1705312801.940
230, 135.2091, 25.1457, 90.7489, 36.9335, 43.5507, 12.6097, 34.3187, 35.8580, 0.0000, 0.0000, 0.0000, 0.0000, 0.0000, 0.0000, 0.0000, 0.0000, 0.0000, 0.0000, 2024-01-15 10:00:01.944, 1705312801.944
231, 102.4892, 16.2020, 68.5018, 22.9370, 16.4443, -10.5283, 15.6852, 13.7399, 0.0000, 0.0000, 0.0000, 0.0000, 0.0000, 0.0000, 0.0000, 0.0000, 0.0000, 0.0000, 2024-01-15 10:00:01.948, 1705312801.948
232, 71.7849, 6.7394, 41.6269, 3.4105, 7.2336, -14.8385, -6.6128, -11.6385, 0.0000, 0.0000, 0.0000, 0.0000, 0.0000, 0.0000, 0.0000, 0.0000, 0.0000, 0.0000, 2024-01-15 10:00:01.952, 1705312801.952
233, 77.2183, 20.0042, 50.6187, 10.9721, 15.8991, -6.1535, -23.0765, -33.8041, 0.0000, 0.0000, 0.0000, 0.0000, 0.0000, 0.0000, 0.0000, 0.0000, 0.0000, 0.0000, 2024-01-15 10:00:01.956, 1705312801.956
234, 76.9901, 22.1583, 64.2002, 18.1729, 0.0464, -13.2333, -38.2507, -49.2686, 0.0000, 0.0000, 0.0000, 0.0000, 0.0000, 0.0000, 0.0000, 0.0000, 0.0000, 0.0000, 2024-01-15 10:00:01.960, 1705312801.960
235, 48.1798, -5.6799, 39.9167, -5.0435, -37.2899, -19.7101, -50.5571, -51.9118, 0.0000, 0.0000, 0.0000, 0.0000, 0.0000, 0.0000, 0.0000, 0.0000, 0.0000, 0.0000, 2024-01-15 10:00:01.964, 1705312801.964
236, 37.3163, -17.3523, 8.3327, -22.7198, -46.8949, 1.4788, -49.1284, -35.7109, 0.0000, 0.0000, 0.0000, 0.0000, 0.0000, 0.0000, 0.0000, 0.0000, 0.0000, 0.0000, 2024-01-15 10:00:01.968, 1705312801.968
237, 62.0804, 3.8313, 12.2268, -6.5495, -22.3523, 24.0280, -32.9866, -9.0671, 0.0000, 0.0000, 0.0000, 0.0000, 0.0000, 0.0000, 0.0000, 0.0000, 0.0000, 0.0000, 2024-01-15 10:00:01.972, 1705312801.972
238, 86.1206, 16.6056, 35.1295, 14.6568, 3.1976, 21.8937, -11.8524, 12.3443, 0.0000, 0.0000, 0.0000, 0.0000, 0.0000, 0.0000, 0.0000, 0.0000, 0.0000, 0.0000, 2024-01-15 10:00:01.976, 1705312801.976
239, 87.2905, 6.9472, 41.2799, 14.9406, 14.2319, 16.5443, 3.2372, 22.4051, 0.0000, 0.0000, 0.0000, 0.0000, 0.0000, 0.0000, 0.0000, 0.0000, 0.0000, 0.0000, 2024-01-15 10:00:01.980, 1705312801.980
240, 67.5387, -3.0636, 32.6491, 5.8965, 5.7252, 17.4042, 2.4913, 19.2995, 0.0000, 0.0000, 0.0000, 0.0000, 0.0000, 0.0000, 0.0000, 0.0000, 0.0000, 0.0000, 2024-01-15 10:00:01.984, 1705312801.984
241, 41.1705, -7.5899, 31.3852, 5.4970, -20.4334, 4.4383, -13.3876, 2.3704, 0.0000, 0.0000, 0.0000, 0.0000, 0.0000, 0.0000, 0.0000, 0.0000, 0.0000, 0.0000, 2024-01-15 10:00:01.988, 1705312801.988
242, 28.2513, -15.5453, 30.2144, 8.4874, -36.1898, -16.1761, -30.7718, -18.2415, 0.0000, 0.0000, 0.0000, 0.0000, 0.0000, 0.0000, 0.0000, 0.0000, 0.0000, 0.0000, 2024-01-15 10:00:01.992, 1705312801.992
243, 21.8101, -28.6575, 7.7519, -1.5033, -25.7326, -22.0020, -40.3258, -30.8765, 0.0000, 0.0000, 0.0000, 0.0000, 0.0000, 0.0000, 0.0000, 0.0000, 0.0000, 0.0000, 2024-01-15 10:00:01.996, 1705312801.996
244, 11.0000, -36.0000, -14.0000, -14.0000, -13.0000, -16.0000, -42.0000, -35.0000, 0.0000, 0.0000, 0.0000, 0.0000, 0.0000, 0.0000, 0.0000, 0.0000, 0.0000, 0.0000, 2024-01-15 10:00:02.000, 1705312802.000
245, 19.7219, -25.7264, 0.3383, -3.9663, -10.0459, -6.9954, -34.3372, -30.4517, 0.0000, 0.0000, 0.0000, 0.0000, 0.0000, 0.0000, 0.0000, 0.0000, 0.0000, 0.0000, 2024-01-15 10:00:02.004, 1705312802.004
246, 45.2465, -13.6270, 29.2697, 14.6277, -0.0816, 2.8516, -18.6882, -15.4408, 0.0000, 0.0000, 0.0000, 0.0000, 0.0000, 0.0000, 0.0000, 0.0000, 0.0000, 0.0000, 2024-01-15 10:00:02.008, 1705312802.008
247, 41.9971, -24.4194, 37.2032, 10.1577, 14.7916, 2.1355, -4.3545, 1.3509, 0.0000, 0.0000, 0.0000, 0.0000, 0.0000, 0.0000, 0.0000, 0.0000, 0.0000, 0.0000, 2024-01-15 10:00:02.012, 1705312802.012
248, 16.8148, -41.5267, 36.7886, -7.8635, 19.5293, -8.0032, 4.6836, 11.6983, 0.0000, 0.0000, 0.0000, 0.0000, 0.0000, 0.0000, 0.0000, 0.0000, 0.0000, 0.0000, 2024-01-15 10:00:02.016, 1705312802.016
249, 18.7582, -37.5581, 43.2166, -14.4116, 27.2584, -4.4887, 14.6097, 21.6191, 0.0000, 0.0000, 0.0000, 0.0000, 0.0000, 0.0000, 0.0000, 0.0000, 0.0000, 0.0000, 2024-01-15 10:00:02.020, 1705312802.020
250, 46.8322, -24.9885, 46.6473, -9.9569, 52.2347, 15.1681, 29.6590, 36.2267, 0.0000, 0.0000, 0.0000, 0.0000, 0.0000, 0.0000, 0.0000, 0.0000, 0.0000, 0.0000, 2024-01-15 10:00:02.024, 1705312802.024
251, 69.7625, -19.0813, 49.7082, -0.3701, 71.6759, 30.4141, 47.0976, 49.7369, 0.0000, 0.0000, 0.0000, 0.0000, 0.0000, 0.0000, 0.0000, 0.0000, 0.0000, 0.0000, 2024-01-15 10:00:02.028, 1705312802.028
252, 64.8138, -12.7389, 54.3092, 10.7668, 65.4728, 38.4421, 61.0695, 58.2844, 0.0000, 0.0000, 0.0000, 0.0000, 0.0000, 0.0000, 0.0000, 0.0000, 0.0000, 0.0000, 2024-01-15 10:00:02.032, 1705312802.032
253, 16.3484, -12.1193, 48.8187, 15.4137, 55.4705, 45.1196, 66.0455, 62.8076, 0.0000, 0.0000, 0.0000, 0.0000, 0.0000, 0.0000, 0.0000, 0.0000, 0.0000, 0.0000, 2024-01-15 10:00:02.036, 1705312802.036
254, -28.0744, -25.4496, 45.8225, 17.8179, 59.7842, 38.1851, 59.6029, 60.3357, 0.0000, 0.0000, 0.0000, 0.0000, 0.0000, 0.0000, 0.0000, 0.0000, 0.0000, 0.0000, 2024-01-15 10:00:02.040, 1705312802.040
255, 10.8777, -33.9833, 55.4804, 19.7965, 53.7908, 13.3061, 41.5549, 46.8437, 0.0000, 0.0000, 0.0000, 0.0000, 0.0000, 0.0000, 0.0000, 0.0000, 0.0000, 0.0000, 2024-01-15 10:00:02.044, 1705312802.044
0, 91.2109, -24.0426, 48.3341, 5.9497, 24.5934, -5.6259, 15.0797, 24.8500, 0.0000, 0.0000, 0.0000, 0.0000, 0.0000, 0.0000, 0.0000, 0.0000, 0.0000, 0.0000, 2024-01-15 10:00:02.048, 1705312802.048
1, 105.0287, -5.4987, 21.8541, -12.2153, 7.3122, -5.0216, -8.6348, 1.8550, 0.0000, 0.0000, 0.0000, 0.0000, 0.0000, 0.0000, 0.0000, 0.0000, 0.0000, 0.0000, 2024-01-15 10:00:02.052, 1705312802.052
2, 75.8275, 10.3236, 16.3809, -4.2141, 17.2357, -6.3172, -19.6972, -16.1022, 0.0000, 0.0000, 0.0000, 0.0000, 0.0000, 0.0000, 0.0000, 0.0000, 0.0000, 0.0000, 2024-01-15 10:00:02.056, 1705312802.056
3, 90.3214, 13.6317, 26.4627, 9.3848, 18.9881, -23.0270, -22.1991, -27.1317, 0.0000, 0.0000, 0.0000, 0.0000, 0.0000, 0.0000, 0.0000, 0.0000, 0.0000, 0.0000, 2024-01-15 10:00:02.060, 1705312802.060
4, 128.2656, 3.6953, 14.4702, -7.7566, 2.8252, -31.2246, -23.2450, -29.8991, 0.0000, 0.0000, 0.0000, 0.0000, 0.0000, 0.0000, 0.0000, 0.0000, 0.0000, 0.0000, 2024-01-15 10:00:02.064, 1705312802.064
5, 135.0626, -1.4138, -5.4428, -29.9352, 0.9244, -17.8618, -20.9760, -22.3915, 0.0000, 0.0000, 0.0000, 0.0000, 0.0000, 0.0000, 0.0000, 0.0000, 0.0000, 0.0000, 2024-01-15 10:00:02.068, 1705312802.068
6, 118.6944, 0.9952, -5.0919, -24.8282, 12.4584, -10.5627, -15.0475, -8.5709, 0.0000, 0.0000, 0.0000, 0.0000, 0.0000, 0.0000, 0.0000, 0.0000, 0.0000, 0.0000, 2024-01-15 10:00:02.072, 1705312802.072
7, 88.8479, -9.2129, -1.2206, -18.4116, 9.6493, -22.8598, -11.7316, -0.0330, 0.0000, 0.0000, 0.0000, 0.0000, 0.0000, 0.0000, 0.0000, 0.0000, 0.0000, 0.0000, 2024-01-15 10:00:02.076, 1705312802.076
8, 47.2062, -28.2136, -10.2607, -33.6497, -0.5165, -33.4022, -15.2778, -6.5795, 0.0000, 0.0000, 0.0000, 0.0000, 0.0000, 0.0000, 0.0000, 0.0000, 0.0000, 0.0000, 2024-01-15 10:00:02.080, 1705312802.080
9, 28.1670, -34.2122, -20.5164, -50.6416, -3.8327, -40.0402, -26.5700, -28.0042, 0.0000, 0.0000, 0.0000, 0.0000, 0.0000, 0.0000, 0.0000, 0.0000, 0.0000, 0.0000, 2024-01-15 10:00:02.084, 1705312802.084
10, 46.4245, -27.8797, -25.3754, -56.2604, -13.9414, -56.2476, -41.7699, -54.0386, 0.0000, 0.0000, 0.0000, 0.0000, 0.0000, 0.0000, 0.0000, 0.0000, 0.0000, 0.0000, 2024-01-15 10:00:02.088, 1705312802.088
11, 72.9155, -14.4917, -24.6013, -54.0516, -28.1565, -65.6590, -50.5535, -72.5437, 0.0000, 0.0000, 0.0000, 0.0000, 0.0000, 0.0000, 0.0000, 0.0000, 0.0000, 0.0000, 2024-01-15 10:00:02.092, 1705312802.092
12, 91.6106, 9.5614, -13.3891, -37.5391, -23.7897, -56.5113, -49.8597, -79.9310, 0.0000, 0.0000, 0.0000, 0.0000, 0.0000, 0.0000, 0.0000, 0.0000, 0.0000, 0.0000, 2024-01-15 10:00:02.096, 1705312802.096
13, 100.0000, 29.0000, 1.0000, -12.0000, -11.0000, -52.0000, -49.0000, -79.0000, 0.0000, 0.0000, 0.0000, 0.0000, 0.0000, 0.0000, 0.0000, 0.0000, 0.0000, 0.0000, 2024-01-15 10:00:02.100, 1705312802.100
14, 85.9799, 24.7517, 3.2738, -4.5707, -14.7082, -57.9547, -52.4719, -70.8212, 0.0000, 0.0000, 0.0000, 0.0000, 0.0000, 0.0000, 0.0000, 0.0000, 0.0000, 0.0000, 2024-01-15 10:00:02.104, 1705312802.104
15, 54.4096, 7.0197, -8.2250, -20.4351, -26.8714, -55.2209, -57.0073, -58.6077, 0.0000, 0.0000, 0.0000, 0.0000, 0.0000, 0.0000, 0.0000, 0.0000, 0.0000, 0.0000, 2024-01-15 10:00:02.108, 1705312802.108
16, 25.7296, -6.7971, -24.9699, -35.1262, -30.9974, -46.7832, -62.3205, -48.1906, 0.0000, 0.0000, 0.0000, 0.0000, 0.0000, 0.0000, 0.0000, 0.0000, 0.0000, 0.0000, 2024-01-15 10:00:02.112, 1705312802.112
17, 11.9531, -12.8461, -38.0921, -37.4527, -29.8925, -40.9572, -65.8999, -37.0922, 0.0000, 0.0000, 0.0000, 0.0000, 0.0000, 0.0000, 0.0000, 0.0000, 0.0000, 0.0000, 2024-01-15 10:00:02.116, 1705312802.116
18, 23.8609, -8.3897, -38.2715, -34.9732, -24.5296, -29.9456, -61.9039, -20.3332, 0.0000, 0.0000, 0.0000, 0.0000, 0.0000, 0.0000, 0.0000, 0.0000, 0.0000, 0.0000, 2024-01-15 10:00:02.120, 1705312802.120
19, 55.2779, 2.3233, -24.2432, -28.4332, -13.3171, -21.1203, -53.7049, -4.6137, 0.0000, 0.0000, 0.0000, 0.0000, 0.0000, 0.0000, 0.0000, 0.0000, 0.0000, 0.0000, 2024-01-15 10:00:02.124, 1705312802.124
20, 70.9230, 3.1182, -10.4816, -19.1415, -9.7292, -23.2821, -48.2908, 2.6286, 0.0000, 0.0000, 0.0000, 0.0000, 0.0000, 0.0000, 0.0000, 0.0000, 0.0000, 0.0000, 2024-01-15 10:00:02.128, 1705312802.128
21, 61.8035, -8.3782, -11.2457, -17.4004, -21.9825, -17.5120, -44.1164, 5.4834, 0.0000, 0.0000, 0.0000, 0.0000, 0.0000, 0.0000, 0.0000, 0.0000, 0.0000, 0.0000, 2024-01-15 10:00:02.132, 1705312802.132
22, 59.8955, -15.1674, -19.2672, -19.0744, -33.7132, 0.3701, -38.4527, 7.2556, 0.0000, 0.0000, 0.0000, 0.0000, 0.0000, 0.0000, 0.0000, 0.0000, 0.0000, 0.0000, 2024-01-15 10:00:02.136, 1705312802.136
23, 71.8164, -8.5582, -16.0579, -9.1428, -29.1460, 6.6287, -31.1651, 5.2003, 0.0000, 0.0000, 0.0000, 0.0000, 0.0000, 0.0000, 0.0000, 0.0000, 0.0000, 0.0000, 2024-01-15 10:00:02.140, 1705312802.140
24, 72.4571, 0.2972, -1.0041, 5.6790, -16.3310, 0.6429, -20.2237, 1.9008, 0.0000, 0.0000, 0.0000, 0.0000, 0.0000, 0.0000, 0.0000, 0.0000, 0.0000, 0.0000, 2024-01-15 10:00:02.144, 1705312802.144
25, 57.2074, -2.4869, 10.7983, 9.0311, -13.4011, -2.0335, -9.3217, 4.1359, 0.0000, 0.0000, 0.0000, 0.0000, 0.0000, 0.0000, 0.0000, 0.0000, 0.0000, 0.0000, 2024-01-15 10:00:02.148, 1705312802.148
26, 39.4878, -13.5714, 13.0965, 4.4263, -25.1978, -5.1535, -7.5266, 13.2067, 0.0000, 0.0000, 0.0000, 0.0000, 0.0000, 0.0000, 0.0000, 0.0000, 0.0000, 0.0000, 2024-01-15 10:00:02.152, 1705312802.152
27, 28.2736, -16.3254, 8.4619, -1.5191, -36.8019, -9.0410, -13.5911, 25.2528, 0.0000, 0.0000, 0.0000, 0.0000, 0.0000, 0.0000, 0.0000, 0.0000, 0.0000, 0.0000, 2024-01-15 10:00:02.156, 1705312802.156
28, 32.4142, -6.6930, 0.9546, -10.0279, -27.8310, -2.2783, -17.8330, 36.4158, 0.0000, 0.0000, 0.0000, 0.0000, 0.0000, 0.0000, 0.0000, 0.0000, 0.0000, 0.0000, 2024-01-15 10:00:02.160, 1705312802.160
29, 50.3862, 2.8740, 2.4653, -9.7927, 2.8677, 10.6913, -14.9727, 47.3168, 0.0000, 0.0000, 0.0000, 0.0000, 0.0000, 0.0000, 0.0000, 0.0000, 0.0000, 0.0000, 2024-01-15 10:00:02.164, 1705312802.164
30, 65.4551, 6.6628, 18.5446, 7.3087, 30.5045, 19.0894, -3.8347, 61.2113, 0.0000, 0.0000, 0.0000, 0.0000, 0.0000, 0.0000, 0.0000, 0.0000, 0.0000, 0.0000, 2024-01-15 10:00:02.168, 1705312802.168
31, 69.4228, 7.3011, 32.4449, 20.9559, 31.4714, 21.3929, 11.6069, 74.2257, 0.0000, 0.0000, 0.0000, 0.0000, 0.0000, 0.0000, 0.0000, 0.0000, 0.0000, 0.0000, 2024-01-15 10:00:02.172, 1705312802.172
32, 65.3964, 3.7778, 31.8393, 15.1855, 13.1531, 15.9979, 21.6554, 77.8380, 0.0000, 0.0000, 0.0000, 0.0000, 0.0000, 0.0000, 0.0000, 0.0000, 0.0000, 0.0000, 2024-01-15 10:00:02.176, 1705312802.176
33, 57.4888, 1.4181, 27.3037, 4.4228, 3.1258, 9.1991, 24.4765, 72.4606, 0.0000, 0.0000, 0.0000, 0.0000, 0.0000, 0.0000, 0.0000, 0.0000, 0.0000, 0.0000, 2024-01-15 10:00:02.180, 1705312802.180
34, 57.9725, 11.3353, 28.3612, 4.0671, 9.8603, 11.8098, 26.3441, 64.0660, 0.0000, 0.0000, 0.0000, 0.0000, 0.0000, 0.0000, 0.0000, 0.0000, 0.0000, 0.0000, 2024-01-15 10:00:02.184, 1705312802.184
35, 73.2044, 26.3863, 32.4764, 12.1390, 14.9481, 12.1851, 25.5153, 53.5346, 0.0000, 0.0000, 0.0000, 0.0000, 0.0000, 0.0000, 0.0000, 0.0000, 0.0000, 0.0000, 2024-01-15 10:00:02.188, 1705312802.188
36, 82.9661, 25.3782, 31.9213, 16.6139, 9.6664, -3.1826, 17.9375, 41.1509, 0.0000, 0.0000, 0.0000, 0.0000, 0.0000, 0.0000, 0.0000, 0.0000, 0.0000, 0.0000, 2024-01-15 10:00:02.192, 1705312802.192
37, 70.8099, 5.3230, 15.3654, 1.7468, 9.5901, -16.8576, 10.1434, 30.1668, 0.0000, 0.0000, 0.0000, 0.0000, 0.0000, 0.0000, 0.0000, 0.0000, 0.0000, 0.0000, 2024-01-15 10:00:02.196, 1705312802.196
38, 55.0000, -11.0000, -9.0000, -25.0000, 19.0000, -12.0000, 7.0000, 23.0000, 0.0000, 0.0000, 0.0000, 0.0000, 0.0000, 0.0000, 0.0000, 0.0000, 0.0000, 0.0000, 2024-01-15 10:00:02.200, 1705312802.200
39, 57.9597, -3.4106, -8.2520, -26.1227, 17.5856, -0.1513, 3.4295, 22.3428, 0.0000, 0.0000, 0.0000, 0.0000, 0.0000, 0.0000, 0.0000, 0.0000, 0.0000, 0.0000, 2024-01-15 10:00:02.204, 1705312802.204
40, 68.8835, 15.6125, 18.3444, 5.8131, 1.6127, 5.8191, -2.8975, 27.6574, 0.0000, 0.0000, 0.0000, 0.0000, 0.0000, 0.0000, 0.0000, 0.0000, 0.0000, 0.0000, 2024-01-15 10:00:02.208, 1705312802.208
41, 63.0388, 17.2350, 29.6849, 29.1865, -3.1394, 9.2994, -7.7379, 31.7634, 0.0000, 0.0000, 0.0000, 0.0000, 0.0000, 0.0000, 0.0000, 0.0000, 0.0000, 0.0000, 2024-01-15 10:00:02.212, 1705312802.212
42, 47.5884, 8.2719, 20.3051, 28.3307, 13.3424, 18.0862, -6.4336, 34.0453, 0.0000, 0.0000, 0.0000, 0.0000, 0.0000, 0.0000, 0.0000, 0.0000, 0.0000, 0.0000, 2024-01-15 10:00:02.216, 1705312802.216
43, 54.5389, 20.7690, 27.1567, 33.9084, 29.6366, 30.4294, 4.4101, 42.4235, 0.0000, 0.0000, 0.0000, 0.0000, 0.0000, 0.0000, 0.0000, 0.0000, 0.0000, 0.0000, 2024-01-15 10:00:02.220, 1705312802.220
44, 79.2164, 42.5425, 49.5624, 51.9342, 30.5890, 30.3466, 20.6409, 52.8645, 0.0000, 0.0000, 0.0000, 0.0000, 0.0000, 0.0000, 0.0000, 0.0000, 0.0000, 0.0000, 2024-01-15 10:00:02.224, 1705312802.224
45, 81.2438, 34.3818, 52.2843, 55.9665, 22.8750, 12.4554, 29.2364, 51.5548, 0.0000, 0.0000, 0.0000, 0.0000, 0.0000, 0.0000, 0.0000, 0.0000, 0.0000, 0.0000, 2024-01-15 10:00:02.228, 1705312802.228
46, 63.1279, 10.5799, 37.3885, 47.7656, 15.9743, 0.2801, 24.2596, 38.0202, 0.0000, 0.0000, 0.0000, 0.0000, 0.0000, 0.0000, 0.0000, 0.0000, 0.0000, 0.0000, 2024-01-15 10:00:02.232, 1705312802.232
47, 63.5122, 7.5146, 33.7427, 49.0220, 12.2702, 5.7176, 12.1264, 22.7304, 0.0000, 0.0000, 0.0000, 0.0000, 0.0000, 0.0000, 0.0000, 0.0000, 0.0000, 0.0000, 2024-01-15 10:00:02.236, 1705312802.236
48, 70.7825, 4.9390, 39.1415, 50.1295, 7.7807, 7.2373, -1.8520, 12.0394, 0.0000, 0.0000, 0.0000, 0.0000, 0.0000, 0.0000, 0.0000, 0.0000, 0.0000, 0.0000, 2024-01-15 10:00:02.240, 1705312802.240
49, 48.9004, -24.1749, 33.2590, 30.2357, 0.6418, -2.6147, -14.6351, 9.0672, 0.0000, 0.0000, 0.0000, 0.0000, 0.0000, 0.0000, 0.0000, 0.0000, 0.0000, 0.0000, 2024-01-15 10:00:02.244, 1705312802.244
50, 20.1926, -45.7359, 22.7160, 4.6355, 1.8494, -7.5700, -19.0761, 12.9525, 0.0000, 0.0000, 0.0000, 0.0000, 0.0000, 0.0000, 0.0000, 0.0000, 0.0000, 0.0000, 2024-01-15 10:00:02.248, 1705312802.248
51, 21.9712, -27.2793, 28.3112, 2.8259, 15.5291, -9.5381, -12.9879, 15.7830, 0.0000, 0.0000, 0.0000, 0.0000, 0.0000, 0.0000, 0.0000, 0.0000, 0.0000, 0.0000, 2024-01-15 10:00:02.252, 1705312802.252
52, 40.9122, 5.3997, 44.2525, 20.8442, 23.0371, -15.7616, -3.5642, 14.1218, 0.0000, 0.0000, 0.0000, 0.0000, 0.0000, 0.0000, 0.0000, 0.0000, 0.0000, 0.0000, 2024-01-15 10:00:02.256, 1705312802.256
53, 54.3226, 20.4127, 47.6223, 33.3641, 20.7920, -11.9885, 5.5383, 14.3104, 0.0000, 0.0000, 0.0000, 0.0000, 0.0000, 0.0000, 0.0000, 0.0000, 0.0000, 0.0000, 2024-01-15 10:00:02.260, 1705312802.260
54, 60.1914, 17.3380, 40.6931, 35.2449, 31.0121, 1.7859, 15.9720, 18.9705, 0.0000, 0.0000, 0.0000, 0.0000, 0.0000, 0.0000, 0.0000, 0.0000, 0.0000, 0.0000, 2024-01-15 10:00:02.264, 1705312802.264
55, 55.0095, 5.3955, 44.7588, 38.1824, 47.1898, 1.2704, 22.8676, 22.0281, 0.0000, 0.0000, 0.0000, 0.0000, 0.0000, 0.0000, 0.0000, 0.0000, 0.0000, 0.0000, 2024-01-15 10:00:02.268, 1705312802.268
56, 46.0827, -4.6206, 55.3459, 39.7821, 38.8629, -11.8165, 18.1447, 20.1668, 0.0000, 0.0000, 0.0000, 0.0000, 0.0000, 0.0000, 0.0000, 0.0000, 0.0000, 0.0000, 2024-01-15 10:00:02.272, 1705312802.272
57, 50.1220, -7.7251, 47.7846, 27.3596, 14.1295, -12.6220, 2.3189, 17.5195, 0.0000, 0.0000, 0.0000, 0.0000, 0.0000, 0.0000, 0.0000, 0.0000, 0.0000, 0.0000, 2024-01-15 10:00:02.276, 1705312802.276
58, 53.9359, -19.0058, 22.7430, 3.5158, -0.9047, -7.3768, -19.4362, 16.0372, 0.0000, 0.0000, 0.0000, 0.0000, 0.0000, 0.0000, 0.0000, 0.0000, 0.0000, 0.0000, 2024-01-15 10:00:02.280, 1705312802.280
59, 38.4445, -42.6468, 1.7432, -18.2994, -11.9135, -19.4438, -44.1142, 10.3707, 0.0000, 0.0000, 0.0000, 0.0000, 0.0000, 0.0000, 0.0000, 0.0000, 0.0000, 0.0000, 2024-01-15 10:00:02.284, 1705312802.284
60, 24.5201, -48.8247, -10.2738, -32.2314, -22.7205, -33.5621, -65.0305, -0.3043, 0.0000, 0.0000, 0.0000, 0.0000, 0.0000, 0.0000, 0.0000, 0.0000, 0.0000, 0.0000, 2024-01-15 10:00:02.288, 1705312802.288
61, 36.6847, -23.1044, -18.2810, -34.3050, -16.9239, -21.0676, -72.4335, -6.2191, 0.0000, 0.0000, 0.0000, 0.0000, 0.0000, 0.0000, 0.0000, 0.0000, 0.0000, 0.0000, 2024-01-15 10:00:02.292, 1705312802.292
62, 62.9722, 4.2126, -15.8079, -20.9435, -2.4195, -3.2509, -66.6864, -4.9654, 0.0000, 0.0000, 0.0000, 0.0000, 0.0000, 0.0000, 0.0000, 0.0000, 0.0000, 0.0000, 2024-01-15 10:00:02.296, 1705312802.296
63, 81.0000, 7.0000, -2.0000, -8.0000, -1.0000, -17.0000, -58.0000, -8.0000, 0.0000, 0.0000, 0.0000, 0.0000, 0.0000, 0.0000, 0.0000, 0.0000, 0.0000, 0.0000, 2024-01-15 10:00:02.300, 1705312802.300
64, 83.0619, -5.4478, 8.4671, -15.6704, -5.8293, -41.3975, -51.8478, -16.7356, 0.0000, 0.0000, 0.0000, 0.0000, 0.0000, 0.0000, 0.0000, 0.0000, 0.0000, 0.0000, 2024-01-15 10:00:02.304, 1705312802.304
65, 75.2085, -15.4187, 10.0315, -29.9227, -5.3854, -37.5785, -46.9234, -18.0811, 0.0000, 0.0000, 0.0000, 0.0000, 0.0000, 0.0000, 0.0000, 0.0000, 0.0000, 0.0000, 2024-01-15 10:00:02.308, 1705312802.308
66, 71.6317, -17.2546, 9.9764, -26.4141, -5.8029, -22.6683, -43.3013, -10.8689, 0.0000, 0.0000, 0.0000, 0.0000, 0.0000, 0.0000, 0.0000, 0.0000, 0.0000, 0.0000, 2024-01-15 10:00:02.312, 1705312802.312
67, 79.1554, -13.8950, 9.8566, -17.7484, -4.9553, -26.2805, -41.4567, -7.0327, 0.0000, 0.0000, 0.0000, 0.0000, 0.0000, 0.0000, 0.0000, 0.0000, 0.0000, 0.0000, 2024-01-15 10:00:02.316, 1705312802.316
68, 92.1713, -11.8451, 12.9584, -22.5529, 4.7735, -32.5071, -39.0238, -8.6880, 0.0000, 0.0000, 0.0000, 0.0000, 0.0000, 0.0000, 0.0000, 0.0000, 0.0000, 0.0000, 2024-01-15 10:00:02.320, 1705312802.320
69, 102.2185, -14.6939, 26.8244, -26.7603, 15.3553, -25.3374, -34.4509, -9.3256, 0.0000, 0.0000, 0.0000, 0.0000, 0.0000, 0.0000, 0.0000, 0.0000, 0.0000, 0.0000, 2024-01-15 10:00:02.324, 1705312802.324
70, 99.1497, -20.1684, 39.1338, -22.2651, 20.7429, -18.3784, -27.7868, -7.0400, 0.0000, 0.0000, 0.0000, 0.0000, 0.0000, 0.0000, 0.0000, 0.0000, 0.0000, 0.0000, 2024-01-15 10:00:02.328, 1705312802.328
71, 87.3952, -21.4366, 35.7979, -22.4826, 30.7365, -13.7332, -17.8136, -1.7087, 0.0000, 0.0000, 0.0000, 0.0000, 0.0000, 0.0000, 0.0000, 0.0000, 0.0000, 0.0000, 2024-01-15 10:00:02.332, 1705312802.332
72, 96.0140, -9.0319, 39.9193, -19.6468, 51.4247, -3.8400, -4.2761, 6.8606, 0.0000, 0.0000, 0.0000, 0.0000, 0.0000, 0.0000, 0.0000, 0.0000, 0.0000, 0.0000, 2024-01-15 10:00:02.336, 1705312802.336
73, 127.1112, 11.7366, 69.7991, -1.0744, 70.9661, -0.9239, 8.7112, 13.3841, 0.0000, 0.0000, 0.0000, 0.0000, 0.0000, 0.0000, 0.0000, 0.0000, 0.0000, 0.0000, 2024-01-15 10:00:02.340, 1705312802.340
74, 134.0042, 13.0934, 88.9845, 9.9235, 70.1904, -10.6739, 15.1369, 10.4805, 0.0000, 0.0000, 0.0000, 0.0000, 0.0000, 0.0000, 0.0000, 0.0000, 0.0000, 0.0000, 2024-01-15 10:00:02.344, 1705312802.344
75, 99.7956, -13.9675, 66.8655, -2.1414, 49.1743, -15.2413, 13.0275, -2.3891, 0.0000, 0.0000, 0.0000, 0.0000, 0.0000, 0.0000, 0.0000, 0.0000, 0.0000, 0.0000, 2024-01-15 10:00:02.348, 1705312802.348
76, 69.6572, -35.5597, 35.1696, -11.1842, 33.4272, -6.3190, 6.7285, -16.2264, 0.0000, 0.0000, 0.0000, 0.0000, 0.0000, 0.0000, 0.0000, 0.0000, 0.0000, 0.0000, 2024-01-15 10:00:02.352, 1705312802.352
77, 72.1959, -29.7915, 29.5565, -0.9841, 35.6196, 5.4317, 1.2856, -19.3009, 0.0000, 0.0000, 0.0000, 0.0000, 0.0000, 0.0000, 0.0000, 0.0000, 0.0000, 0.0000, 2024-01-15 10:00:02.356, 1705312802.356
78, 81.2896, -23.8172, 38.9252, 13.5962, 37.7363, 10.6478, -3.1299, -8.6998, 0.0000, 0.0000, 0.0000, 0.0000, 0.0000, 0.0000, 0.0000, 0.0000, 0.0000, 0.0000, 2024-01-15 10:00:02.360, 1705312802.360
79, 68.3651, -39.9092, 39.3349, 20.3489, 28.9997, 9.0849, -7.6376, 9.0225, 0.0000, 0.0000, 0.0000, 0.0000, 0.0000, 0.0000, 0.0000, 0.0000, 0.0000, 0.0000, 2024-01-15 10:00:02.364, 1705312802.364
80, 45.3379, -54.9093, 26.6844, 16.5630, 22.6028, 12.4484, -10.0970, 28.9920, 0.0000, 0.0000, 0.0000, 0.0000, 0.0000, 0.0000, 0.0000, 0.0000, 0.0000, 0.0000, 2024-01-15 10:00:02.368, 1705312802.368
81, 48.2776, -44.7772, 18.8828, 10.4790, 33.2218, 34.0208, -6.2792, 51.8039, 0.0000, 0.0000, 0.0000, 0.0000, 0.0000, 0.0000, 0.0000, 0.0000, 0.0000, 0.0000, 2024-01-15 10:00:02.372, 1705312802.372
82, 80.7511, -24.7817, 40.4939, 23.6913, 63.8198, 61.7727, 7.2311, 77.4445, 0.0000, 0.0000, 0.0000, 0.0000, 0.0000, 0.0000, 0.0000, 0.0000, 0.0000, 0.0000, 2024-01-15 10:00:02.376, 1705312802.376
83, 97.8496, -19.5475, 79.8348, 50.4044, 89.5701, 65.1615, 24.1820, 98.1665, 0.0000, 0.0000, 0.0000, 0.0000, 0.0000, 0.0000, 0.0000, 0.0000, 0.0000, 0.0000, 2024-01-15 10:00:02.380, 1705312802.380
84, 80.6370, -24.6263, 90.0000, 51.3049, 66.7963, 37.8041, 23.6868, 97.1903, 0.0000, 0.0000, 0.0000, 0.0000, 0.0000, 0.0000, 0.0000, 0.0000, 0.0000, 0.0000, 2024-01-15 10:00:02.384, 1705312802.384
